Data from MgO Tm LN_USBC44471_15-14-34-706.txt Node
Date: Wed Jul 29 15:14:34 MDT 2020
User: Montana Instruments
Spectrometer: USBC4447
Scans to average: 1
Trigger mode: 4
Integration Time (sec): 1.000000E1
Electric dark correction enabled: true
Boxcar width: 0
XAxis mode: Wavelengths
Number of Pixels in Spectrum: 3648
>>>>>Begin Spectral Data<<<<<
344.991	-5334.96
345.205	-5334.96
345.419	-5334.96
345.633	-5320.62
345.847	-5384.11
346.061	-235.52
346.275	700.41
346.489	-1286.12
346.703	-90.11
346.917	-1736.68
347.131	1220.59
347.345	-886.77
347.559	-1003.5
347.773	1632.23
347.986	-49.15
348.2	2953.17
348.414	-1218.54
348.628	-786.42
348.842	-1005.55
349.056	-1216.49
349.269	489.46
349.483	1304.56
349.697	1470.44
349.911	1234.93
350.125	-929.78
350.338	309.24
350.552	839.67
350.766	-604.15
350.979	-1601.51
351.193	-516.09
351.407	5201.84
351.621	-233.47
351.834	-1415.15
352.048	2543.58
352.262	-307.2
352.475	3217.36
352.689	1136.62
352.902	1499.11
353.116	184.32
353.33	-1419.24
353.543	-1165.29
353.757	544.76
353.971	174.08
354.184	321.53
354.398	-505.85
354.611	743.41
354.825	2895.83
355.038	1116.14
355.252	-159.74
355.465	-520.18
355.679	-1837.03
355.892	860.15
356.106	1402.86
356.319	7534.48
356.533	-550.9
356.746	-169.98
356.96	-714.74
357.173	-1431.53
357.386	1382.38
357.6	-772.08
357.813	-1093.62
358.027	-1945.57
358.24	-649.21
358.453	2662.36
358.667	-1284.08
358.88	1136.62
359.094	-1015.79
359.307	372.73
359.52	-389.11
359.733	2183.13
359.947	-2289.63
360.16	1216.49
360.373	1617.9
360.587	-1249.26
360.8	-688.12
361.013	-399.35
361.226	-868.34
361.44	2498.52
361.653	1601.51
361.866	-966.64
362.079	-2187.23
362.292	253.95
362.506	3375.05
362.719	688.12
362.932	3039.19
363.145	65.53
363.358	-897.01
363.571	-1296.36
363.785	-221.18
363.998	1347.56
364.211	1886.18
364.424	-1380.33
364.637	1230.83
364.85	-511.99
365.063	2105.31
365.276	167.93
365.489	-1400.81
365.702	-327.68
365.915	350.2
366.128	-475.13
366.341	1978.34
366.554	3418.06
366.767	-864.24
366.98	-61.44
367.193	976.88
367.406	-1394.67
367.619	3839.94
367.832	2119.65
368.045	274.43
368.258	544.76
368.471	925.68
368.684	-2277.34
368.896	-1771.49
369.109	16.38
369.322	-1095.66
369.535	-180.22
369.748	-1497.07
369.961	-759.8
370.173	-2772.95
370.386	-2590.68
370.599	2686.94
370.812	-413.69
371.025	-868.34
371.237	163.84
371.45	247.8
371.663	788.47
371.876	-667.64
372.088	4773.82
372.301	-817.14
372.514	-1554.41
372.726	567.29
372.939	-489.46
373.152	-538.62
373.364	1064.94
373.577	3461.07
373.79	-466.94
374.002	-983.02
374.215	-2891.73
374.428	-1796.07
374.64	1693.67
374.853	-1030.13
375.065	-561.14
375.278	3508.17
375.491	71.68
375.703	1513.45
375.916	-2041.82
376.128	-667.64
376.341	-1581.03
376.553	831.48
376.766	-1495.02
376.978	-1732.58
377.191	958.45
377.403	-1701.86
377.616	3033.04
377.828	3960.77
378.04	-1279.98
378.253	-561.14
378.465	413.69
378.678	1222.64
378.89	-1216.49
379.103	-712.69
379.315	186.37
379.527	-1691.62
379.74	-561.14
379.952	-227.32
380.164	-1316.84
380.377	2043.87
380.589	112.64
380.801	-6.14
381.014	1656.81
381.226	956.4
381.438	-16.38
381.65	-1304.56
381.863	-106.49
382.075	-1040.37
382.287	-2324.44
382.499	-972.79
382.712	-126.97
382.924	-38.91
383.136	-856.05
383.348	-3295.18
383.56	-38.91
383.772	-972.79
383.985	124.93
384.197	1486.83
384.409	-526.33
384.621	585.72
384.833	22.53
385.045	118.78
385.257	-1361.9
385.469	-643.06
385.681	24.58
385.893	-206.84
386.105	-1099.76
386.318	-2555.86
386.53	-370.68
386.742	-3282.89
386.954	-2230.24
387.166	2846.68
387.378	112.64
387.589	86.01
387.801	-3092.43
388.013	-1388.52
388.225	-1183.73
388.437	-2160.61
388.649	-1961.95
388.861	2496.47
389.073	1148.91
389.285	-612.34
389.497	802.8
389.709	1273.84
389.92	-1153.01
390.132	-989.17
390.344	-745.46
390.556	-696.31
390.768	342.01
390.98	-983.02
391.191	1832.93
391.403	780.28
391.615	284.67
391.827	-1224.69
392.038	-835.57
392.25	-276.48
392.462	-2191.33
392.674	-1986.53
392.885	-1462.25
393.097	-2398.17
393.309	-835.57
393.52	1124.33
393.732	-1660.9
393.944	669.69
394.155	309.24
394.367	-1423.34
394.579	704.5
394.79	-1134.57
395.002	-309.24
395.213	-2713.56
395.425	-276.48
395.637	-1189.87
395.848	-2340.83
396.06	333.82
396.271	204.8
396.483	-1116.14
396.694	-403.45
396.906	-538.62
397.117	1251.31
397.329	1425.39
397.54	-720.89
397.752	-1884.13
397.963	-1089.52
398.175	286.72
398.386	1212.4
398.598	-806.9
398.809	-2160.61
399.02	772.08
399.232	825.33
399.443	26.62
399.655	-925.68
399.866	-1052.66
400.077	-354.3
400.289	1501.16
400.5	-2.05
400.711	837.62
400.923	-1609.7
401.134	-1185.77
401.345	-1851.36
401.556	3301.33
401.768	-1023.98
401.979	-1089.52
402.19	788.47
402.401	-456.7
402.613	36.86
402.824	-780.28
403.035	-2639.83
403.246	-1724.39
403.457	376.83
403.669	219.13
403.88	-1740.77
404.091	-2086.88
404.302	-1353.71
404.513	-581.62
404.724	-937.97
404.935	-866.29
405.146	1107.95
405.358	-1837.03
405.569	-1626.09
405.78	-2074.59
405.991	-974.83
406.202	104.45
406.413	-264.19
406.624	-1515.5
406.835	-387.07
407.046	2811.86
407.257	-94.21
407.468	1193.97
407.679	-405.5
407.89	1834.98
408.101	1959.91
408.312	-405.5
408.522	-1964
408.733	413.69
408.944	280.57
409.155	-555
409.366	929.78
409.577	-1826.79
409.788	-489.46
409.999	210.94
410.209	-634.87
410.42	155.65
410.631	-1877.99
410.842	-114.69
411.053	5191.6
411.264	1142.77
411.474	-1202.16
411.685	-73.73
411.896	-1433.58
412.107	-2068.45
412.317	-1042.42
412.528	1804.26
412.739	-2121.7
412.949	-1329.13
413.16	73.73
413.371	2017.25
413.581	1075.18
413.792	-675.83
414.003	3667.91
414.213	1791.97
414.424	-2082.78
414.635	-620.53
414.845	-1255.4
415.056	1017.84
415.266	-1640.42
415.477	-2441.18
415.687	847.86
415.898	1075.18
416.109	-1601.51
416.319	356.35
416.53	-2768.85
416.74	321.53
416.951	-1474.54
417.161	43.01
417.372	135.17
417.582	569.34
417.792	1464.3
418.003	2381.79
418.213	-825.33
418.424	507.9
418.634	-1660.9
418.844	1126.38
419.055	1886.18
419.265	-1279.98
419.476	522.23
419.686	-958.45
419.896	-16.38
420.107	-1134.57
420.317	-663.54
420.527	63.49
420.738	-407.55
420.948	950.26
421.158	1204.21
421.368	-677.88
421.579	-264.19
421.789	-1279.98
421.999	-3852.23
422.209	-501.75
422.419	-540.66
422.63	-86.01
422.84	-499.7
423.05	-1292.27
423.26	-1175.53
423.47	-155.65
423.681	-2047.97
423.891	729.08
424.101	1644.52
424.311	-915.44
424.521	-266.24
424.731	-727.03
424.941	-595.96
425.151	413.69
425.361	-1810.4
425.571	-2691.03
425.781	4063.17
425.991	761.84
426.201	1519.59
426.411	266.24
426.621	-1437.67
426.831	-2004.96
427.041	200.7
427.251	-315.39
427.461	1267.69
427.671	1093.62
427.881	-782.32
428.091	-139.26
428.301	2506.71
428.511	-92.16
428.721	-3203.02
428.93	-499.7
429.14	-1198.06
429.35	348.15
429.56	-1077.23
429.77	-499.7
429.98	-1361.9
430.189	-1200.11
430.399	2781.14
430.609	1378.28
430.819	126.97
431.029	-1386.47
431.238	-913.39
431.448	-792.56
431.658	-2650.07
431.867	-784.37
432.077	325.63
432.287	-1230.83
432.497	-1044.46
432.706	-47.1
432.916	-397.31
433.125	-3012.56
433.335	-1261.55
433.545	1142.77
433.754	3737.54
433.964	-1200.11
434.174	-851.95
434.383	2115.55
434.593	-1296.36
434.802	839.67
435.012	-1400.81
435.221	360.44
435.431	-763.89
435.64	-1208.3
435.85	-1036.27
436.059	231.42
436.269	878.58
436.478	-966.64
436.688	-2242.53
436.897	-886.77
437.107	-2336.73
437.316	27328.09
437.525	94.21
437.735	118.78
437.944	-83.97
438.154	2375.64
438.363	262.14
438.572	2961.36
438.782	339.96
438.991	-835.57
439.2	-290.81
439.41	-931.83
439.619	-1163.25
439.828	251.9
440.038	90.11
440.247	2031.59
440.456	-1511.4
440.665	657.4
440.875	1017.84
441.084	372.73
441.293	-1753.06
441.502	-1279.98
441.711	-1118.19
441.92	350.2
442.13	-311.29
442.339	-1126.38
442.548	-706.55
442.757	1982.43
442.966	-3012.56
443.175	-1142.77
443.384	1388.52
443.593	1476.59
443.803	-1990.63
444.012	-217.08
444.221	-475.13
444.43	4716.47
444.639	448.51
444.848	2138.08
445.057	-1286.12
445.266	-1300.46
445.475	-2465.75
445.684	-1308.65
445.893	2418.65
446.102	276.48
446.311	-3106.77
446.52	-24.58
446.728	3008.47
446.937	-3147.73
447.146	-3891.14
447.355	370.68
447.564	-331.77
447.773	1593.32
447.982	1298.41
448.191	667.64
448.399	-1361.9
448.608	-876.53
448.817	-784.37
449.026	983.02
449.235	-1673.19
449.443	1089.52
449.652	-679.93
449.861	-954.35
450.07	194.56
450.278	1785.83
450.487	-2965.46
450.696	-65.53
450.904	-1353.71
451.113	-735.22
451.322	626.68
451.53	-606.2
451.739	3010.51
451.948	-1056.75
452.156	102.4
452.365	4198.34
452.574	786.42
452.782	360.44
452.991	-487.42
453.199	692.21
453.408	266.24
453.616	-1429.48
453.825	1271.79
454.033	1404.91
454.242	3450.83
454.45	3622.86
454.659	421.88
454.867	15228.7
455.076	-989.17
455.284	-972.79
455.493	-1757.16
455.701	-1066.99
455.91	3033.04
456.118	-946.16
456.326	-2097.12
456.535	2619.35
456.743	1173.49
456.951	-2158.56
457.16	1122.29
457.368	735.22
457.576	-1636.33
457.785	2473.95
457.993	-141.31
458.201	-1236.97
458.41	722.93
458.618	-976.88
458.826	-167.93
459.034	-2824.15
459.243	-1384.43
459.451	53.25
459.659	-104.45
459.867	-610.29
460.075	-835.57
460.284	-28.67
460.492	-2213.85
460.7	-391.16
460.908	-806.9
461.116	-2668.5
461.324	-1257.45
461.532	-2394.08
461.741	-1904.61
461.949	-851.95
462.157	1925.09
462.365	-71.68
462.573	-77.82
462.781	509.94
462.989	-874.48
463.197	-1503.21
463.405	-2232.29
463.613	-49.15
463.821	-2451.42
464.029	55.3
464.237	-1177.58
464.445	-749.56
464.653	899.06
464.861	-364.54
465.069	1437.67
465.276	4886.45
465.484	-706.55
465.692	-692.21
465.9	-937.97
466.108	-567.29
466.316	976.88
466.524	-829.43
466.731	-499.7
466.939	1834.98
467.147	-36.86
467.355	-157.69
467.563	1417.19
467.77	653.3
467.978	-2664.41
468.186	514.04
468.393	2054.11
468.601	-385.02
468.809	-1890.28
469.017	-749.56
469.224	-1910.75
469.432	946.16
469.64	-1394.67
469.847	-2013.15
470.055	587.77
470.263	-1101.81
470.47	-1163.25
470.678	1380.33
470.885	-253.95
471.093	2633.69
471.3	772.08
471.508	-1509.35
471.716	-485.37
471.923	256
472.131	405.5
472.338	-1343.47
472.546	-745.46
472.753	3047.38
472.961	-1445.87
473.168	-135.17
473.375	-624.63
473.583	1110
473.79	-169.98
473.998	268.28
474.205	303.1
474.412	2007.01
474.62	-860.15
474.827	-1523.69
475.035	1511.4
475.242	-798.71
475.449	-1468.39
475.657	4202.43
475.864	3250.13
476.071	65.53
476.278	-872.43
476.486	-518.14
476.693	157.69
476.9	321.53
477.107	362.49
477.315	-1110
477.522	129.02
477.729	1474.54
477.936	-538.62
478.143	-1581.03
478.351	1413.1
478.558	-1341.42
478.765	-589.81
478.972	-208.89
479.179	565.24
479.386	702.45
479.593	1069.04
479.8	903.15
480.007	-1624.04
480.215	-237.56
480.422	1026.03
480.629	-2242.53
480.836	1193.97
481.043	3080.14
481.25	-649.21
481.457	-1474.54
481.664	-704.5
481.871	798.71
482.078	-1341.42
482.284	-1398.76
482.491	2127.84
482.698	1732.58
482.905	-1105.9
483.112	-2222.05
483.319	239.61
483.526	28.67
483.733	2381.79
483.94	-2648.02
484.146	-1648.61
484.353	100.35
484.56	-563.19
484.767	-3461.07
484.974	2289.63
485.18	1677.29
485.387	-501.75
485.594	-1159.15
485.801	1875.94
486.007	321.53
486.214	-985.07
486.421	-1906.66
486.627	-251.9
486.834	919.54
487.041	534.52
487.247	-1304.56
487.454	-1357.8
487.661	573.43
487.867	518.14
488.074	-1679.33
488.281	1122.29
488.487	-188.41
488.694	-694.26
488.9	-421.88
489.107	-1052.66
489.313	-835.57
489.52	-591.86
489.726	-1656.81
489.933	3080.14
490.139	3014.61
490.346	-454.65
490.552	387.07
490.759	-303.1
490.965	145.41
491.172	6578.08
491.378	-358.39
491.584	98.3
491.791	1644.52
491.997	-59.39
492.204	-446.46
492.41	3168.21
492.616	-1777.64
492.823	-1325.04
493.029	-1097.71
493.235	2355.16
493.442	-303.1
493.648	-817.14
493.854	-694.26
494.06	4814.77
494.267	745.46
494.473	-782.32
494.679	-1343.47
494.885	313.34
495.091	3313.61
495.298	931.83
495.504	-2394.08
495.71	-176.13
495.916	-1853.41
496.122	2717.65
496.328	643.06
496.535	696.31
496.741	-419.83
496.947	776.18
497.153	-178.17
497.359	614.39
497.565	561.14
497.771	1654.76
497.977	-262.14
498.183	-718.84
498.389	958.45
498.595	-1644.52
498.801	542.71
499.007	884.72
499.213	-391.16
499.419	-552.95
499.625	-4.1
499.831	3319.76
500.037	-544.76
500.243	-1470.44
500.448	-563.19
500.654	1157.1
500.86	2131.94
501.066	-626.68
501.272	2467.8
501.478	-1920.99
501.684	-634.87
501.889	-1859.56
502.095	-1429.48
502.301	-313.34
502.507	669.69
502.712	-602.1
502.918	-1341.42
503.124	-987.12
503.33	964.59
503.535	-788.47
503.741	223.23
503.947	-192.51
504.152	-299
504.358	-2146.27
504.564	-458.74
504.769	491.51
504.975	4562.87
505.181	-94.21
505.386	-1759.21
505.592	-653.3
505.797	686.07
506.003	-2488.28
506.208	1998.82
506.414	-432.12
506.619	18.43
506.825	630.77
507.03	-1961.95
507.236	-1066.99
507.441	258.04
507.647	-511.99
507.852	151.55
508.058	1339.37
508.263	1163.25
508.469	-430.07
508.674	-2166.75
508.879	-522.23
509.085	-71.68
509.29	-1441.77
509.495	-1302.51
509.701	-1056.75
509.906	911.35
510.111	-675.83
510.317	856.05
510.522	198.65
510.727	2248.67
510.933	-655.35
511.138	497.66
511.343	-737.27
511.548	557.05
511.754	-1517.54
511.959	2336.73
512.164	59.39
512.369	3536.84
512.574	3534.79
512.779	-1501.16
512.985	-530.42
513.19	1093.62
513.395	286.72
513.6	-966.64
513.805	-229.37
514.01	1992.67
514.215	-147.45
514.42	2830.29
514.625	-385.02
514.83	2582.49
515.035	-157.69
515.24	102.4
515.445	3096.53
515.65	1785.83
515.855	286.72
516.06	-315.39
516.265	651.25
516.47	1460.2
516.675	321.53
516.88	-2322.4
517.085	229.37
517.29	-520.18
517.495	440.31
517.7	1689.57
517.904	-176.13
518.109	608.25
518.314	-536.57
518.519	468.98
518.724	696.31
518.928	694.26
519.133	-501.75
519.338	241.66
519.543	466.94
519.747	1054.7
519.952	3076.05
520.157	6285.22
520.362	999.41
520.566	2752.47
520.771	-1720.29
520.976	1329.13
521.18	3770.31
521.385	-874.48
521.59	-944.11
521.794	411.64
521.999	2308.06
522.203	-954.35
522.408	-444.41
522.612	-958.45
522.817	794.61
523.022	2379.74
523.226	-200.7
523.431	-1069.04
523.635	219.13
523.84	2316.25
524.044	-792.56
524.249	1744.87
524.453	3067.86
524.657	208.89
524.862	7116.69
525.066	-808.95
525.271	-198.65
525.475	1478.63
525.679	-4.1
525.884	-1724.39
526.088	1437.67
526.292	2699.22
526.497	241.66
526.701	-735.22
526.905	-253.95
527.11	198.65
527.314	-270.33
527.518	3594.19
527.722	-874.48
527.927	1181.68
528.131	-2009.06
528.335	5646.25
528.539	1847.27
528.744	2869.2
528.948	-1601.51
529.152	-1193.97
529.356	2736.09
529.56	616.44
529.764	47.1
529.968	57.34
530.173	8112
530.377	6381.47
530.581	-1597.42
530.785	1757.16
530.989	-356.35
531.193	415.74
531.397	-1153.01
531.601	413.69
531.805	1789.92
532.009	1638.37
532.213	221.18
532.417	616.44
532.621	2211.81
532.825	3456.97
533.029	108.54
533.233	821.24
533.436	675.83
533.64	249.85
533.844	1759.21
534.048	-440.31
534.252	778.23
534.456	3540.94
534.66	2340.83
534.863	325.63
535.067	444.41
535.271	2543.58
535.475	-421.88
535.679	2195.42
535.882	3172.3
536.086	2033.63
536.29	2408.41
536.493	602.1
536.697	1613.8
536.901	1187.82
537.104	2220
537.308	1034.22
537.512	1558.5
537.715	4091.84
537.919	1988.58
538.123	2140.13
538.326	1497.07
538.53	2795.48
538.733	3448.78
538.937	2404.32
539.141	2125.79
539.344	3223.5
539.548	2289.63
539.751	4992.95
539.955	5789.61
540.158	7397.26
540.362	5339.05
540.565	3266.51
540.768	4665.27
540.972	11112.28
541.175	9258.87
541.379	6909.85
541.582	6447.01
541.785	8335.23
541.989	9957.22
542.192	5498.8
542.396	6770.58
542.599	8748.92
542.802	9183.09
543.005	7759.75
543.209	6711.19
543.412	8255.36
543.615	8105.86
543.819	8232.83
544.022	6596.51
544.225	8220.55
544.428	8019.85
544.631	10684.25
544.835	7448.46
545.038	6227.87
545.241	6823.83
545.444	9854.83
545.647	8306.56
545.85	7077.78
546.054	5799.85
546.257	4046.79
546.46	6864.79
546.663	6158.24
546.866	7004.05
547.069	6934.42
547.272	5339.05
547.475	6236.06
547.678	5486.51
547.881	4190.14
548.084	4628.41
548.287	5072.82
548.49	2635.74
548.693	4083.65
548.896	1837.03
549.099	4671.42
549.302	2797.53
549.505	2148.32
549.707	1822.69
549.91	4249.54
550.113	1992.67
550.316	1708.01
550.519	4358.08
550.722	4155.33
550.924	1908.71
551.127	3205.07
551.33	2250.72
551.533	1578.98
551.736	1216.49
551.938	1128.43
552.141	2820.05
552.344	708.6
552.546	3049.43
552.749	1822.69
552.952	1798.12
553.154	1851.36
553.357	1675.24
553.56	1673.19
553.762	7198.61
553.965	5640.11
554.168	1972.19
554.37	3850.18
554.573	2887.64
554.775	4364.22
554.978	3145.68
555.18	485.37
555.383	1236.97
555.585	5146.55
555.788	2768.85
555.99	1236.97
556.193	2027.49
556.395	3280.85
556.598	1138.67
556.8	1656.81
557.003	2095.07
557.205	5844.9
557.407	1427.43
557.61	1939.43
557.812	2326.49
558.015	4360.13
558.217	1603.56
558.419	2414.56
558.622	3770.31
558.824	2297.82
559.026	847.86
559.228	1724.39
559.431	3420.11
559.633	3176.4
559.835	1843.17
560.037	3246.03
560.24	4814.77
560.442	4114.37
560.644	1464.3
560.846	3424.2
561.048	3545.03
561.25	4435.9
561.453	3043.28
561.655	2004.96
561.857	2664.41
562.059	2004.96
562.261	4882.36
562.463	3080.14
562.665	2555.87
562.867	3719.11
563.069	3837.89
563.271	4788.15
563.473	3549.13
563.675	3190.74
563.877	3207.12
564.079	2133.98
564.281	5265.33
564.483	3876.8
564.685	3125.2
564.887	2551.77
565.089	4603.83
565.291	4548.54
565.493	1839.08
565.694	5300.14
565.896	1802.21
566.098	4227.01
566.3	5291.95
566.502	2752.47
566.704	5724.07
566.905	471.03
567.107	1310.7
567.309	1247.21
567.511	4347.84
567.712	1388.52
567.914	2439.13
568.116	575.48
568.317	4716.47
568.519	3272.65
568.721	206.84
568.922	243.71
569.124	2586.58
569.326	5216.18
569.527	2410.46
569.729	1662.95
569.93	6723.48
570.132	2009.06
570.334	4128.7
570.535	913.39
570.737	1867.75
570.938	6213.54
571.14	2258.91
571.341	3629
571.543	7057.3
571.744	2787.29
571.946	4286.4
572.147	1638.37
572.348	5296.05
572.55	4218.82
572.751	5224.37
572.953	2215.9
573.154	4196.29
573.355	6703
573.557	9146.23
573.758	3770.31
573.959	3508.17
574.161	5234.61
574.362	5287.86
574.563	7507.85
574.765	5849
574.966	6295.46
575.167	2238.43
575.368	5359.53
575.569	3831.75
575.771	6154.15
575.972	3141.58
576.173	4210.62
576.374	5595.05
576.575	4999.09
576.776	1646.57
576.978	2541.53
577.179	3284.94
577.38	4224.96
577.581	2793.43
577.782	3413.96
577.983	5367.73
578.184	5695.4
578.385	3459.02
578.586	4294.59
578.787	2596.82
578.988	4167.62
579.189	1830.88
579.39	2750.42
579.591	3762.12
579.792	2887.64
579.993	4757.43
580.194	4796.34
580.395	6031.27
580.596	4040.64
580.796	5119.92
580.997	2901.97
581.198	3678.15
581.399	5654.44
581.6	6227.87
581.801	2951.12
582.001	6637.47
582.202	2322.4
582.403	1431.53
582.604	7632.78
582.804	3696.58
583.005	4087.75
583.206	858.1
583.407	5357.49
583.607	3190.74
583.808	2775
584.009	4915.12
584.209	4591.55
584.41	1679.33
584.61	3381.2
584.811	3114.96
585.012	2607.06
585.212	1880.04
585.413	3346.38
585.613	3315.66
585.814	2195.42
586.014	4988.85
586.215	2551.77
586.415	3366.86
586.616	2054.11
586.816	2621.4
587.017	4786.1
587.217	1769.45
587.418	6184.87
587.618	2707.41
587.819	2494.43
588.019	1165.29
588.219	643.06
