Data from TmLN Sample 3_USBC44471_15-10-42-375.txt Node
Date: Wed Jul 29 15:10:42 MDT 2020
User: Montana Instruments
Spectrometer: USBC4447
Scans to average: 1
Trigger mode: 4
Integration Time (sec): 1.000000E1
Electric dark correction enabled: true
Boxcar width: 0
XAxis mode: Wavelengths
Number of Pixels in Spectrum: 3648
>>>>>Begin Spectral Data<<<<<
344.991	-4714.77
345.205	-4714.77
345.419	-4714.77
345.633	-4729.1
345.847	-4722.96
346.061	-135.51
346.275	1306.26
346.489	-1784.12
346.703	106.15
346.917	-3025.19
347.131	1711.76
347.345	-764.23
347.559	-979.27
347.773	2137.74
347.986	67.24
348.2	3556.98
348.414	-2197.81
348.628	-1149.25
348.842	-2064.69
349.056	-1696.06
349.269	773.79
349.483	1887.89
349.697	2018.96
349.911	1967.76
350.125	-1610.04
350.338	958.11
350.552	1355.41
350.766	-387.41
350.979	-2953.51
351.193	-301.39
351.407	5817.94
351.621	308.9
351.834	-2591.02
352.048	2981.5
352.262	-735.56
352.475	3829.36
352.689	1681.04
352.902	2041.48
353.116	302.76
353.33	-1986.87
353.543	-2005.3
353.757	833.18
353.971	585.38
354.184	745.12
354.398	-426.32
354.611	1367.7
354.825	3290.74
355.038	1699.47
355.252	-72.02
355.465	-180.56
355.679	-3377.44
355.892	1162.9
356.106	1851.02
356.319	8078.9
356.533	-1122.63
356.746	97.96
356.96	-979.27
357.173	-2752.81
357.386	1965.71
357.6	-579.92
357.813	-1515.84
358.027	-3369.25
358.24	-1577.28
358.453	3104.38
358.667	-2167.09
358.88	1527.44
359.094	-2232.63
359.307	743.07
359.52	-438.61
359.733	2578.05
359.947	-3627.29
360.16	1855.12
360.373	2305.67
360.587	-2072.89
360.8	-1038.66
361.013	93.87
361.226	-1331.52
361.44	3106.43
361.653	2174.6
361.866	-1038.66
362.079	-3797.28
362.292	648.86
362.506	3993.2
362.719	1199.77
362.932	3520.12
363.145	300.71
363.358	-1925.43
363.571	-2079.03
363.785	-141.65
363.998	1834.64
364.211	2428.55
364.424	-1931.58
364.637	1582.74
364.85	-850.25
365.063	2504.32
365.276	593.57
365.489	-2361.65
365.702	-0.34
365.915	536.23
366.128	61.1
366.341	2455.17
366.554	3892.85
366.767	-1526.08
366.98	521.89
367.193	1517.2
367.406	-2634.03
367.619	4327.02
367.832	2258.57
368.045	779.93
368.258	796.32
368.471	1482.39
368.684	-3643.68
368.896	-3451.17
369.109	376.48
369.322	-2130.23
369.535	245.41
369.748	-2441.52
369.961	-792.91
370.173	-3670.3
370.386	-3764.51
370.599	3202.68
370.812	-403.79
371.025	-1556.8
371.237	585.38
371.45	734.88
371.663	1355.41
371.876	-1192.26
372.088	5320.28
372.301	-1370.43
372.514	-2863.4
372.726	857.76
372.939	-102.74
373.152	-950.6
373.364	1541.78
373.577	3806.83
373.79	-227.67
374.002	-1687.87
374.215	-3778.84
374.428	-3326.24
374.64	1920.65
374.853	-1386.82
375.065	-604.49
375.278	4103.79
375.491	628.39
375.703	1928.85
375.916	-3414.31
376.128	-1388.86
376.341	-2611.5
376.553	1410.71
376.766	-2689.32
376.978	-3307.81
377.191	1160.86
377.403	-3209.51
377.616	3624.56
377.828	4552.29
378.04	-2079.03
378.253	-684.36
378.465	689.82
378.678	1625.75
378.89	-1786.17
379.103	-1136.96
379.315	648.86
379.527	-3264.8
379.74	-323.92
379.952	102.06
380.164	-2797.87
380.377	2541.19
380.589	433.83
380.801	452.26
381.014	2072.2
381.226	1562.26
381.438	513.7
381.65	-2642.22
381.863	593.57
382.075	-2117.94
382.287	-3731.74
382.499	-1628.48
382.712	231.08
382.924	255.65
383.136	-979.27
383.348	-3729.69
383.56	327.33
383.772	-2054.45
383.985	644.77
384.197	1859.21
384.409	-391.5
384.621	757.41
384.833	513.7
385.045	544.42
385.257	-2191.67
385.469	-948.55
385.681	618.15
385.893	532.13
386.105	-1861.94
386.318	-3733.79
386.53	83.63
386.742	-3852.57
386.954	-3506.46
387.166	3251.83
387.378	513.7
387.589	401.06
387.801	-3666.21
388.013	-3041.57
388.225	-2040.12
388.437	-3713.31
388.649	-3250.47
388.861	3178.11
389.073	1552.02
389.285	-809.29
389.497	1232.54
389.709	1906.32
389.92	-1732.92
390.132	-1532.22
390.344	-1089.86
390.556	-1171.78
390.768	749.22
390.98	-1210.69
391.191	2332.3
391.403	1158.81
391.615	677.54
391.827	-2244.92
392.038	-1466.69
392.25	-229.71
392.462	-3610.91
392.674	-3537.18
392.885	-2642.22
393.097	-3553.57
393.309	-889.16
393.52	1678.99
393.732	-3080.49
393.944	1035.93
394.155	659.1
394.367	-2584.88
394.579	1066.65
394.79	-2380.08
395.002	274.09
395.213	-3737.88
395.425	-90.45
395.637	-2386.22
395.848	-3725.6
396.06	868
396.271	796.32
396.483	-2734.38
396.694	89.77
396.906	-487.76
397.117	1722
397.329	2002.57
397.54	-846.15
397.752	-3461.41
397.963	-2091.32
398.175	609.95
398.386	1672.85
398.598	-1335.62
398.809	-3674.4
399.02	1398.42
399.232	1355.41
399.443	519.84
399.655	-1517.89
399.866	-2470.19
400.077	-196.95
400.289	1871.5
400.5	460.45
400.711	1304.21
400.923	-2146.61
401.134	-2140.47
401.345	-3397.92
401.556	3747.44
401.768	-1229.12
401.979	-710.99
402.19	1339.03
402.401	-905.54
402.613	634.53
402.824	-809.29
403.035	-3569.95
403.246	-3516.7
403.457	904.86
403.669	532.13
403.88	-2732.33
404.091	-3615.01
404.302	-2081.08
404.513	-700.75
404.724	-1284.42
404.935	-1218.88
405.146	1564.31
405.358	-3391.78
405.569	-2914.6
405.78	-3543.33
405.991	-926.02
406.202	394.92
406.413	-20.82
406.624	-3186.98
406.835	-92.5
407.046	3321.46
407.257	229.03
407.468	1703.57
407.679	-178.51
407.89	2395.78
408.101	2567.81
408.312	-739.66
408.522	-3490.08
408.733	894.62
408.944	683.68
409.155	-874.82
409.366	1527.44
409.577	-3658.01
409.788	28.33
409.999	571.04
410.209	-506.19
410.42	618.15
410.631	-3359.01
410.842	54.95
411.053	5373.53
411.264	1488.53
411.474	-1757.5
411.685	104.11
411.896	-2062.65
412.107	-3645.73
412.317	-1360.19
412.528	2483.84
412.739	-3686.69
412.949	-2609.45
413.16	528.03
413.371	2670.21
413.581	1400.47
413.792	-516.43
414.003	4071.02
414.213	2119.31
414.424	-3655.97
414.635	-555.34
414.845	-2154.8
415.056	1375.89
415.266	-2722.09
415.477	-3850.52
415.687	1207.96
415.898	1468.05
416.109	-3014.95
416.319	683.68
416.53	-3750.17
416.74	515.75
416.951	-2154.8
417.161	425.64
417.372	556.71
417.582	1054.36
417.792	2047.63
418.003	2725.51
418.213	-676.17
418.424	861.85
418.634	-2640.17
418.844	1545.88
419.055	2471.56
419.265	-2576.69
419.476	1048.22
419.686	-1540.41
419.896	366.25
420.107	-2468.14
420.317	-602.44
420.527	374.44
420.738	-250.19
420.948	1595.03
421.158	1867.41
421.368	-733.51
421.579	-149.84
421.789	-2447.66
421.999	-3936.54
422.209	-209.23
422.419	-387.41
422.63	-182.61
422.84	-194.9
423.05	-1714.49
423.26	-1747.26
423.47	-149.84
423.681	-3481.89
423.891	1398.42
424.101	2023.05
424.311	-1925.43
424.521	87.72
424.731	-899.4
424.941	-586.06
425.151	888.48
425.361	-2677.04
425.571	-4129.05
425.781	4527.72
425.991	1302.17
426.201	2107.02
426.411	820.89
426.621	-2310.45
426.831	-3629.34
427.041	579.23
427.251	-418.13
427.461	1867.41
427.671	1592.98
427.881	-749.9
428.091	167.59
428.301	2854.53
428.511	61.1
428.721	-3903.77
428.93	-430.41
429.14	-1962.3
429.35	493.22
429.56	-1345.86
429.77	-328.02
429.98	-2361.65
430.189	-2085.17
430.399	3348.09
430.609	2111.11
430.819	681.63
431.029	-2605.36
431.238	-1081.67
431.448	-1104.2
431.658	-3510.56
431.867	-1302.85
432.077	548.51
432.287	-1708.35
432.497	-1810.75
432.706	118.44
432.916	-151.89
433.125	-3993.88
433.335	-1851.71
433.545	1756.82
433.754	4329.06
433.964	-2015.54
434.174	-1333.57
434.383	2592.39
434.593	-1726.78
434.802	1431.19
435.012	-2068.79
435.221	523.94
435.431	-409.94
435.64	-2132.28
435.85	-1823.03
436.059	702.11
436.269	1316.5
436.478	-1595.71
436.688	-3598.62
436.897	-1861.94
437.107	-3694.88
437.316	28114.17
437.525	485.03
437.735	366.25
437.944	302.76
438.154	2954.88
438.363	575.14
438.572	3249.79
438.782	712.35
438.991	-1358.14
439.2	-221.52
439.41	-2718
439.619	-1241.41
439.828	577.19
440.038	370.34
440.247	2625.15
440.456	-2050.36
440.665	1140.38
440.875	1406.61
441.084	544.42
441.293	-2384.18
441.502	-2064.69
441.711	-2226.48
441.92	616.1
442.13	-10.58
442.339	-2148.66
442.548	-790.86
442.757	2260.62
442.966	-4038.94
443.175	-1466.69
443.384	1912.46
443.593	2074.25
443.803	-3244.32
444.012	9.9
444.221	-647.5
444.43	5023.33
444.639	997.02
444.848	2471.56
445.057	-2435.38
445.266	-3082.53
445.475	-3658.01
445.684	-1863.99
445.893	2604.67
446.102	405.16
446.311	-4102.42
446.52	456.36
446.728	3569.27
446.937	-3410.21
447.146	-4092.18
447.355	814.75
447.564	-368.98
447.773	2059.92
447.982	1844.88
448.191	1187.48
448.399	-2466.1
448.608	-2314.55
448.817	-407.89
449.026	1459.86
449.235	-2916.65
449.443	1416.85
449.652	-426.32
449.861	-1421.63
450.07	458.4
450.278	2221.7
450.487	-4102.42
450.696	425.64
450.904	-2531.63
451.113	-2343.22
451.322	1175.19
451.53	-731.47
451.739	3403.38
451.948	-2482.48
452.156	716.45
452.365	4648.55
452.574	1283.74
452.782	663.2
452.991	-231.76
453.199	1224.34
453.408	820.89
453.616	-3137.83
453.825	1795.73
454.033	1969.8
454.242	3753.59
454.45	3972.72
454.659	1023.64
454.867	15674.81
455.076	-2036.02
455.284	-2492.72
455.493	-2394.42
455.701	-1761.59
455.91	3622.52
456.118	-2550.06
456.326	-3311.91
456.535	3239.55
456.743	1730.19
456.951	-3260.71
457.16	1797.78
457.368	1326.74
457.576	-2996.52
457.785	3198.59
457.993	333.48
458.201	-2431.28
458.41	1193.62
458.618	-2378.03
458.826	300.71
459.034	-4217.11
459.243	-2984.23
459.451	83.63
459.659	478.88
459.867	-354.64
460.075	-1575.23
460.284	-534.86
460.492	-3698.97
460.7	-106.84
460.908	-969.03
461.116	-3463.46
461.324	-1556.8
461.532	-4040.98
461.741	-3141.93
461.949	-2265.39
462.157	2543.24
462.365	284.33
462.573	44.71
462.781	683.68
462.989	-405.84
463.197	-2904.36
463.405	-3213.6
463.613	126.63
463.821	-3954.97
464.029	325.29
464.237	-2224.44
464.445	-2142.52
464.653	1429.14
464.861	1.71
465.069	1752.72
465.276	5181.02
465.484	-416.08
465.692	-575.82
465.9	-1651
466.108	-1640.76
466.316	1300.12
466.524	-880.97
466.731	-797
466.939	2248.33
467.147	491.17
467.355	235.18
467.563	1920.65
467.77	1128.09
467.978	-3973.4
468.186	943.77
468.393	2567.81
468.601	-903.5
468.809	-2961.7
469.017	-753.99
469.224	-2892.07
469.432	1474.2
469.64	-1433.92
469.847	-3592.48
470.055	1062.55
470.263	-2777.39
470.47	-975.17
470.678	1920.65
470.885	11.95
471.093	3221.11
471.3	1287.83
471.508	-2711.85
471.716	-727.37
471.923	-57.68
472.131	835.23
472.338	-2257.2
472.546	-1558.85
472.753	3309.18
472.961	-1737.02
473.168	67.24
473.375	-956.74
473.583	1658.51
473.79	188.07
473.998	650.91
474.205	788.13
474.412	2483.84
474.62	-551.24
474.827	-2308.4
475.035	2080.39
475.242	-2107.7
475.449	-2105.65
475.657	4480.61
475.864	3554.93
476.071	-69.97
476.278	-1057.09
476.486	-844.1
476.693	808.61
476.9	515.75
477.107	841.37
477.315	-1556.8
477.522	503.46
477.729	1934.99
477.936	-278.87
478.143	-2738.48
478.351	1883.79
478.558	-2867.5
478.765	-362.83
478.972	-98.64
479.179	1011.36
479.386	1248.92
479.593	1451.67
479.8	1627.79
480.007	-2863.4
480.215	-274.77
480.422	1576.59
480.629	-3621.15
480.836	1648.27
481.043	3792.5
481.25	-379.22
481.457	-2412.85
481.664	-1075.52
481.871	1101.47
482.078	-1360.19
482.284	-2634.03
482.491	2563.72
482.698	2135.69
482.905	-1143.11
483.112	-3950.87
483.319	648.86
483.526	155.3
483.733	2829.95
483.94	-3987.74
484.146	-3057.96
484.353	-69.97
484.56	-409.94
484.767	-4004.12
484.974	2754.18
485.18	2266.76
485.387	16.04
485.594	-1730.87
485.801	2313.86
486.007	255.65
486.214	-659.79
486.421	-3498.27
486.627	-274.77
486.834	1283.74
487.041	1005.21
487.247	-1952.06
487.454	-2765.1
487.661	1506.96
487.867	1193.62
488.074	-3199.27
488.281	1748.62
488.487	-897.35
488.694	-676.17
488.9	-264.53
489.107	-2054.45
489.313	-2009.4
489.52	-252.24
489.726	-2664.75
489.933	3524.21
490.139	3399.29
490.346	-115.03
490.552	902.81
490.759	-610.64
490.965	448.16
491.172	16797.1
491.378	-266.58
491.584	501.41
491.791	2207.37
491.997	296.61
492.204	-127.32
492.41	3673.71
492.616	-3221.8
492.823	-1917.24
493.029	-1718.59
493.235	2852.48
493.442	-401.74
493.648	-356.69
493.854	-547.15
494.06	5052
494.267	1279.64
494.473	-627.02
494.679	-1966.39
494.885	876.19
495.091	3802.74
495.298	1363.61
495.504	-4004.12
495.71	-227.67
495.916	-3416.35
496.122	3040.89
496.328	1109.66
496.535	1222.3
496.741	-1315.14
496.947	1236.63
497.153	-18.77
497.359	1048.22
497.565	859.81
497.771	2252.42
497.977	140.97
498.183	-1136.96
498.389	1197.72
498.595	-2203.96
498.801	1003.16
499.007	1293.97
499.213	-620.88
499.419	-223.57
499.625	413.35
499.831	3860.08
500.037	-1358.14
500.243	-1786.17
500.448	-364.88
500.654	1613.46
500.86	2414.21
501.066	-178.51
501.272	2897.53
501.478	-3244.32
501.684	-1626.43
501.889	-2711.85
502.095	-2425.14
502.301	-444.75
502.507	1058.46
502.712	69.29
502.918	-1614.14
503.124	-2109.75
503.33	1592.98
503.535	-569.68
503.741	640.67
503.947	-454.99
504.152	-502.09
504.358	-3637.53
504.564	-483.66
504.769	925.34
504.975	5025.37
505.181	415.4
505.386	-3033.38
505.592	-1442.11
505.797	1076.89
506.003	-3977.5
506.208	2512.52
506.414	-520.53
506.619	245.41
506.825	1109.66
507.03	-3670.3
507.236	-2234.68
507.441	77.48
507.647	122.54
507.852	472.74
508.058	1820.3
508.263	1697.42
508.469	9.9
508.674	-3840.28
508.879	-1134.92
509.085	-440.65
509.29	-2369.84
509.495	-2019.64
509.701	-1685.82
509.906	1379.99
510.111	-192.85
510.317	1619.6
510.522	745.12
510.727	2752.13
510.933	-362.83
511.138	968.35
511.343	-1376.58
511.548	1056.41
511.754	-2011.45
511.959	2782.85
512.164	229.03
512.369	3812.98
512.574	3974.77
512.779	-2175.28
512.985	-620.88
513.19	1633.94
513.395	609.95
513.6	-1601.85
513.805	57
514.01	2440.84
514.215	294.57
514.42	3303.03
514.625	-747.85
514.83	2983.55
515.035	323.24
515.24	511.65
515.445	3509.88
515.65	2580.1
515.855	900.76
516.06	-174.42
516.265	1167
516.47	1982.09
516.675	884.38
516.88	-3920.15
517.085	454.31
517.29	-1487.17
517.495	1089.18
517.7	2107.02
517.904	-84.31
518.109	1007.26
518.314	20.14
518.519	997.02
518.724	1222.3
518.928	1093.27
519.133	-47.44
519.338	847.52
519.543	966.3
519.747	1533.59
519.952	3436.15
520.157	6950.46
520.362	1425.04
520.566	3448.44
520.771	-2859.31
520.976	1537.68
521.18	4556.39
521.385	-2418.99
521.59	-532.81
521.794	911
521.999	2637.44
522.203	-2257.2
522.408	-33.11
522.612	-1053
522.817	1169.05
523.022	2895.49
523.226	433.83
523.431	-1765.69
523.635	609.95
523.84	2653.83
524.044	-461.13
524.249	2193.03
524.453	3485.3
524.657	517.79
524.862	7339.58
525.066	-930.12
525.271	-137.56
525.475	1828.49
525.679	544.42
525.884	-3178.79
526.088	1990.28
526.292	3102.33
526.497	745.12
526.701	-710.99
526.905	-151.89
527.11	386.72
527.314	249.51
527.518	3886.7
527.722	-1360.19
527.927	1873.55
528.131	-2998.57
528.335	5938.77
528.539	2287.24
528.744	3358.33
528.948	-2578.73
529.152	-1177.92
529.356	3167.87
529.56	1109.66
529.764	751.26
529.968	548.51
530.173	8361.52
530.377	7020.1
530.581	-2369.84
530.785	2330.25
530.989	-637.26
531.193	706.21
531.397	-1159.49
531.601	831.13
531.805	2324.1
532.009	2336.39
532.213	540.32
532.417	1445.52
532.621	2707.07
532.825	3909.23
533.029	720.54
533.233	1257.11
533.436	1269.4
533.64	573.09
533.844	2371.21
534.048	-192.85
534.252	1859.21
534.456	4191.85
534.66	2854.53
534.863	661.15
535.067	759.46
535.271	2819.71
535.475	138.92
535.679	2705.03
535.882	3612.28
536.086	2559.62
536.29	3028.6
536.493	1167
536.697	2193.03
536.901	1633.94
537.104	2551.43
537.308	1795.73
537.512	1984.14
537.715	4556.39
537.919	2338.44
538.123	2604.67
538.326	1953.42
538.53	3466.87
538.733	4222.57
538.937	2885.25
539.141	2334.34
539.344	3729.01
539.548	2846.34
539.751	5512.79
539.955	6118.99
540.158	8001.07
540.362	5672.53
540.565	3743.35
540.768	5086.81
540.972	11539.96
541.175	9700.89
541.379	7589.43
541.582	6874.69
541.785	8539.69
541.989	10532.36
542.192	6096.46
542.396	6903.36
542.599	8994.34
542.802	9545.24
543.005	8279.6
543.209	7218.75
543.412	8975.91
543.615	8701.48
543.819	8838.69
544.022	7056.96
544.225	8001.07
544.428	8410.67
544.631	10892.8
544.835	7921.2
545.038	6782.53
545.241	7280.19
545.444	10231.31
545.647	8703.53
545.85	7663.16
546.054	6063.69
546.257	4525.67
546.46	7233.08
546.663	6721.09
546.866	7298.62
547.069	7353.91
547.272	5914.19
547.475	6616.65
547.678	5965.39
547.881	4796
548.084	5160.54
548.287	5512.79
548.49	2997.88
548.693	4550.25
548.896	2442.89
549.099	5090.91
549.302	3120.76
549.505	2688.64
549.707	2305.67
549.91	4554.34
550.113	2649.73
550.316	2244.23
550.519	5113.44
550.722	4716.13
550.924	2285.19
551.127	3804.78
551.33	2645.63
551.533	2047.63
551.736	1789.58
551.938	1685.14
552.141	3540.6
552.344	1136.28
552.546	3575.41
552.749	2307.72
552.952	2387.59
553.154	2274.95
553.357	2440.84
553.56	2139.79
553.762	7618.1
553.965	6348.36
554.168	2387.59
554.37	4179.56
554.573	3300.98
554.775	4798.05
554.978	3677.81
555.18	1035.93
555.383	1689.23
555.585	5766.74
555.788	3165.82
555.99	1967.76
556.193	2487.94
556.395	3753.59
556.598	1457.81
556.8	2172.55
557.003	2530.95
557.205	6162
557.407	2057.87
557.61	2672.26
557.812	2768.51
558.015	4888.16
558.217	2293.38
558.419	2793.09
558.622	4435.56
558.824	2836.1
559.026	1418.9
559.228	2320.01
559.431	3997.29
559.633	3585.65
559.835	2352.77
560.037	3843.7
560.24	5353.05
560.442	4802.15
560.644	2055.82
560.846	3886.7
561.048	4302.44
561.25	5152.35
561.453	3516.02
561.655	2582.15
561.857	3116.67
562.059	2598.53
562.261	5068.38
562.463	3534.45
562.665	3294.84
562.867	4398.7
563.069	4298.35
563.271	5301.85
563.473	4062.83
563.675	3749.49
563.877	3870.32
564.079	2647.68
564.281	5836.37
564.483	4157.04
564.685	3456.63
564.887	3092.09
565.089	4904.54
565.291	5176.92
565.493	2414.21
565.694	5940.82
565.896	2563.72
566.098	4642.4
566.3	5766.74
566.502	3296.89
566.704	6053.45
566.905	1042.07
567.107	1937.04
567.309	1853.07
567.511	4873.82
567.712	1910.41
567.914	3088
568.116	1017.5
568.317	5316.19
568.519	3825.26
568.721	888.48
568.922	706.21
569.124	3266.17
569.326	5686.87
569.527	2991.74
569.729	2391.69
569.93	7280.19
570.132	2434.69
570.334	4718.18
570.535	1416.85
570.737	2541.19
570.938	6835.78
571.14	2664.07
571.341	4073.07
571.543	7548.47
571.744	3251.83
571.946	4972.13
572.147	2049.68
572.348	6006.35
572.55	4855.39
572.751	5262.94
572.953	2743.94
573.154	4908.64
573.355	7085.63
573.557	9526.81
573.758	4202.09
573.959	3888.75
574.161	5709.4
574.362	5834.32
574.563	7968.31
574.765	6471.24
574.966	6774.34
575.167	2911.87
575.368	5920.34
575.569	4361.83
575.771	6553.16
575.972	3559.03
576.173	4709.99
576.374	6151.76
576.575	5477.98
576.776	2098.83
576.978	3036.8
577.179	3858.03
577.38	4802.15
577.581	3300.98
577.782	4089.45
577.983	5738.07
578.184	6374.99
578.385	3903.09
578.586	4660.84
578.787	3114.62
578.988	4587.11
579.189	2424.45
579.39	3376.76
579.591	4251.24
579.792	3497.59
579.993	5322.33
580.194	5318.23
580.395	6561.35
580.596	4691.56
580.796	5774.93
580.997	3378.81
581.198	4124.27
581.399	6188.62
581.6	6706.76
581.801	3260.02
582.001	7247.42
582.202	2768.51
582.403	1898.13
582.604	7921.2
582.804	4128.36
583.005	4632.16
583.206	1253.02
583.407	5844.56
583.607	3671.67
583.808	3235.45
584.009	5271.13
584.209	5103.2
584.41	2156.17
584.61	3851.89
584.811	3751.54
585.012	3114.62
585.212	2332.3
585.413	3714.67
585.613	3626.61
585.814	2530.95
586.014	5738.07
586.215	3163.77
586.415	3731.06
586.616	2485.89
586.816	3231.35
587.017	5191.26
