Data from TmLN Sample 2_USBC44471_15-08-21-102.txt Node
Date: Wed Jul 29 15:08:21 MDT 2020
User: Montana Instruments
Spectrometer: USBC4447
Scans to average: 1
Trigger mode: 4
Integration Time (sec): 1.000000E1
Electric dark correction enabled: true
Boxcar width: 0
XAxis mode: Wavelengths
Number of Pixels in Spectrum: 3648
>>>>>Begin Spectral Data<<<<<
344.991	-5201.5
345.205	-5201.5
345.419	-5201.5
345.633	-5189.21
345.847	-5189.21
346.061	-325.29
346.275	872.78
346.489	-1261.21
346.703	-188.07
346.917	-1717.9
347.131	1089.86
347.345	-835.23
347.559	-829.09
347.773	1513.79
347.986	-79.53
348.2	2978.09
348.414	-1218.2
348.628	-970.4
348.842	-945.82
349.056	-1146.52
349.269	405.84
349.483	1313.09
349.697	1392.96
349.911	1466.69
350.125	-865.95
350.338	299.34
350.552	854.34
350.766	-548.51
350.979	-1527.44
351.193	-540.32
351.407	5169.41
351.621	-288.42
351.834	-1435.28
352.048	2304.31
352.262	-528.03
352.475	3293.48
352.689	1157.44
352.902	1519.93
353.116	158.03
353.33	-1472.15
353.543	-1003.16
353.757	610.64
353.971	137.56
354.184	158.03
354.398	-411.3
354.611	665.93
354.825	2785.58
355.038	1114.44
355.252	-206.5
355.465	-405.16
355.679	-1762.96
355.892	856.39
356.106	1155.4
356.319	7299.3
356.533	-466.6
356.746	-249.51
356.96	-788.13
357.173	-1451.67
357.386	1372.48
357.6	-917.15
357.813	-917.15
358.027	-1779.34
358.24	-710.3
358.453	2543.92
358.667	-1263.26
358.88	1061.19
359.094	-1109.66
359.307	244.05
359.52	-470.69
359.733	2136.37
359.947	-2219.66
360.16	1177.92
360.373	1532.22
360.587	-1078.94
360.8	-530.08
361.013	-327.33
361.226	-685.73
361.44	2685.23
361.653	1536.32
361.866	-880.29
362.079	-1910.41
362.292	254.29
362.506	3295.52
362.719	444.75
362.932	2896.17
363.145	168.27
363.358	-851.61
363.571	-1289.88
363.785	-173.74
363.998	1231.17
364.211	1999.16
364.424	-1220.25
364.637	1122.63
364.85	-622.24
365.063	1980.73
365.276	92.5
365.489	-1443.48
365.702	-419.49
365.915	248.15
366.128	-292.52
366.341	1720.64
366.554	3297.57
366.767	-751.26
366.98	53.59
367.193	948.55
367.406	-1226.39
367.619	3572
367.832	1863.99
368.045	223.57
368.258	418.13
368.471	1007.94
368.684	-1986.19
368.896	-1779.34
369.109	190.8
369.322	-1013.4
369.535	-194.22
369.748	-1474.2
369.961	-632.48
370.173	-2637.44
370.386	-2389.64
370.599	2627.89
370.812	-405.16
371.025	-736.93
371.237	82.26
371.45	268.63
371.663	870.73
371.876	-566.95
372.088	4698.38
372.301	-802.46
372.514	-1431.19
372.726	430.41
372.939	-239.27
373.152	-351.91
373.364	909.64
373.577	3348.77
373.79	-538.27
374.002	-1066.65
374.215	-2647.68
374.428	-1853.07
374.64	1419.58
374.853	-1054.36
375.065	-560.8
375.278	3569.95
375.491	115.03
375.703	1370.43
375.916	-1988.24
376.128	-681.63
376.341	-1539.73
376.553	977.22
376.766	-1320.6
376.978	-1541.78
377.191	762.19
377.403	-1642.13
377.616	3109.16
377.828	3883.29
378.04	-1207.96
378.253	-532.13
378.465	426.32
378.678	1055.05
378.89	-1156.76
379.103	-786.08
379.315	295.25
379.527	-1592.98
379.74	-609.95
379.952	-175.78
380.164	-1457.81
380.377	2038.07
380.589	151.89
380.801	39.25
381.014	1638.72
381.226	995.65
381.438	22.87
381.65	-1322.65
381.863	129.36
382.075	-951.96
382.287	-2137.74
382.499	-882.33
382.712	-112.3
382.924	37.2
383.136	-775.84
383.348	-2803.33
383.56	-7.85
383.772	-960.16
383.985	313.68
384.197	1397.06
384.409	-665.25
384.621	387.41
384.833	2.39
385.045	112.98
385.257	-1293.97
385.469	-573.09
385.681	45.4
385.893	47.44
386.105	-1001.12
386.318	-2444.93
386.53	-462.5
386.742	-2823.81
386.954	-2143.88
387.166	2892.07
387.378	201.04
387.589	96.6
387.801	-2809.47
388.013	-1355.41
388.225	-1293.97
388.437	-2033.29
388.649	-1719.95
388.861	2459.95
389.073	1040.71
389.285	-591.52
389.497	678.22
389.709	1403.2
389.92	-1228.44
390.132	-939.68
390.344	-642.72
390.556	-657.06
390.768	366.93
390.98	-1044.12
391.191	1546.56
391.403	633.16
391.615	180.56
391.827	-1113.75
392.038	-738.98
392.25	-224.94
392.462	-2174.6
392.674	-1773.2
392.885	-1367.7
393.097	-2291.34
393.309	-659.1
393.52	1114.44
393.732	-1652.37
393.944	643.4
394.155	438.61
394.367	-1386.13
394.579	467.28
394.79	-1234.58
395.002	-42.67
395.213	-2485.89
395.425	-292.52
395.637	-1158.81
395.848	-2303.62
396.06	295.25
396.271	215.38
396.483	-1085.08
396.694	-380.58
396.906	-442.02
397.117	1392.96
397.329	1411.39
397.54	-769.69
397.752	-1814.16
397.963	-1216.15
398.175	401.74
398.386	979.27
398.598	-753.31
398.809	-2166.41
399.02	883.02
399.232	905.54
399.443	121.17
399.655	-958.11
399.866	-1033.88
400.077	-450.21
400.289	1294.66
400.5	98.64
400.711	624.97
400.923	-1635.99
401.134	-1070.75
401.345	-1949.32
401.556	3387.68
401.768	-1080.99
401.979	-407.2
402.19	895.3
402.401	-554.66
402.613	12.63
402.824	-798.37
403.035	-2332.3
403.246	-1730.19
403.457	262.48
403.669	260.43
403.88	-1281.69
404.091	-2049.68
404.302	-1283.74
404.513	-560.8
404.724	-833.18
404.935	-751.26
405.146	975.17
405.358	-1765.01
405.569	-1584.79
405.78	-1941.13
405.991	-839.33
406.202	-26.28
406.413	-290.47
406.624	-1431.19
406.835	-274.09
407.046	2715.95
407.257	-134.82
407.468	1196.36
407.679	-413.35
407.89	1790.27
408.101	1884.47
408.312	-544.42
408.522	-1906.32
408.733	252.24
408.944	313.68
409.155	-616.1
409.366	950.6
409.577	-1918.61
409.788	-390.82
409.999	94.55
410.209	-769.69
410.42	172.37
410.631	-1738.38
410.842	-69.29
411.053	4927.75
411.264	1116.48
411.474	-1158.81
411.685	-77.48
411.896	-1246.87
412.107	-2135.69
412.317	-1007.26
412.528	1870.14
412.739	-2100.87
412.949	-1255.06
413.16	155.99
413.371	1988.92
413.581	917.83
413.792	-646.82
414.003	3326.24
414.213	1630.52
414.424	-1887.89
414.635	-446.12
414.845	-1126.04
415.056	121.17
415.266	-1601.17
415.477	-2346.63
415.687	844.1
415.898	1079.62
416.109	-1691.28
416.319	332.11
416.53	-2676.35
416.74	86.36
416.951	-1281.69
417.161	-42.67
417.372	184.66
417.582	610.64
417.792	1501.5
418.003	2191.67
418.213	-814.75
418.424	430.41
418.634	-1672.85
418.844	1110.34
419.055	1898.81
419.265	-1246.87
419.476	569.68
419.686	-1025.69
419.896	-65.19
420.107	-1189.53
420.317	-863.9
420.527	-3.75
420.738	-458.4
420.948	971.08
421.158	1280.32
421.368	-642.72
421.579	-155.3
421.789	-1128.09
421.999	-3167.87
422.209	-382.63
422.419	-550.56
422.63	-224.94
422.84	-534.18
423.05	-1144.47
423.26	-1171.1
423.47	-192.17
423.681	-2021
423.891	758.09
424.101	1718.59
424.311	-827.04
424.521	-253.61
424.731	-695.97
424.941	-655.01
425.151	387.41
425.361	-1781.39
425.571	-2504.32
425.781	3971.35
425.991	909.64
426.201	1593.66
426.411	405.84
426.621	-1355.41
426.831	-1891.98
427.041	65.88
427.251	-423.59
427.461	1249.6
427.671	1134.92
427.881	-781.98
428.091	-11.95
428.301	2341.17
428.511	-44.71
428.721	-2956.93
428.93	-474.79
429.14	-1269.4
429.35	278.87
429.56	-1062.55
429.77	-351.91
429.98	-1177.24
430.189	-1005.21
430.399	2654.51
430.609	1581.37
430.819	379.22
431.029	-1427.09
431.238	-1013.4
431.448	-716.45
431.658	-2469.51
431.867	-632.48
432.077	332.11
432.287	-1201.82
432.497	-1093.27
432.706	-110.25
432.916	-456.36
433.125	-2836.1
433.335	-1283.74
433.545	1360.19
433.754	3799.32
433.964	-1273.5
434.174	-997.02
434.383	1999.16
434.593	-1232.54
434.802	938.31
435.012	-1318.55
435.221	399.7
435.431	-450.21
435.64	-1064.6
435.85	-1029.79
436.059	219.47
436.269	725.32
436.478	-1035.93
436.688	-2346.63
436.897	-824.99
437.107	-2154.12
437.316	26789.82
437.525	131.41
437.735	164.18
437.944	-38.57
438.154	2527.53
438.363	100.69
438.572	2664.75
438.782	321.87
438.991	-1048.22
439.2	-339.62
439.41	-970.4
439.619	-1140.38
439.828	303.44
440.038	8.53
440.247	1935.67
440.456	-1578.64
440.665	723.27
440.875	989.51
441.084	475.47
441.293	-1828.49
441.502	-1076.89
441.711	-1132.19
441.92	366.93
442.13	-425.64
442.339	-1119.9
442.548	-503.46
442.757	1698.11
442.966	-2838.14
443.175	-1001.12
443.384	1270.08
443.593	1454.4
443.803	-2080.39
444.012	-294.57
444.221	-511.65
444.43	4382.99
444.639	438.61
444.848	2097.46
445.057	-1242.78
445.266	-1371.8
445.475	-2307.72
445.684	-1220.25
445.893	2150.71
446.102	280.91
446.311	-3012.22
446.52	82.26
446.728	2810.15
446.937	-2543.24
447.146	-3415.67
447.355	366.93
447.564	-390.82
447.773	1384.77
447.982	1159.49
448.191	524.62
448.399	-1132.19
448.608	-763.55
448.817	-525.99
449.026	1009.99
449.235	-1457.81
449.443	1042.76
449.652	-702.11
449.861	-962.2
450.07	176.47
450.278	1833.27
450.487	-3061.37
450.696	35.16
450.904	-1089.18
451.113	-779.93
451.322	641.36
451.53	-790.17
451.739	2650.41
451.948	-1119.9
452.156	123.22
452.365	4045.08
452.574	901.45
452.782	510.29
452.991	-585.38
453.199	637.26
453.408	299.34
453.616	-1330.84
453.825	1104.2
454.033	1360.19
454.242	3199.27
454.45	3393.83
454.659	541.01
454.867	14610.55
455.076	-1136.28
455.284	-939.68
455.493	-1676.95
455.701	-1146.52
455.91	3113.25
456.118	-954.01
456.326	-2070.16
456.535	2472.24
456.743	1155.4
456.951	-2201.23
457.16	1044.81
457.368	647.5
457.576	-1597.07
457.785	2683.18
457.993	-177.83
458.201	-1210.01
458.41	723.27
458.618	-908.96
458.826	-106.15
459.034	-2991.74
459.243	-1343.13
459.451	143.7
459.659	57.68
459.867	-712.35
460.075	-738.98
460.284	-138.92
460.492	-2033.29
460.7	-286.37
460.908	-759.46
461.116	-2514.56
461.324	-1230.49
461.532	-2367.11
461.741	-1810.06
461.949	-749.22
462.157	2068.79
462.365	-11.95
462.573	-59.05
462.781	287.06
462.989	-794.27
463.197	-1486.48
463.405	-2188.94
463.613	35.16
463.821	-2403.97
464.029	-44.71
464.237	-1158.81
464.445	-683.68
464.653	758.09
464.861	-339.62
465.069	1366.34
465.276	4682
465.484	-749.22
465.692	-681.63
465.9	-992.92
466.108	-542.37
466.316	876.87
466.524	-763.55
466.731	-388.77
466.939	1827.13
467.147	-130.73
467.355	-165.54
467.563	1515.84
467.77	817.48
467.978	-2422.41
468.186	391.5
468.393	1962.3
468.601	-290.47
468.809	-1793.68
469.017	-808.61
469.224	-1775.25
469.432	926.02
469.64	-1281.69
469.847	-1894.03
470.055	598.35
470.263	-1078.94
470.47	-1068.7
470.678	1372.48
470.885	-77.48
471.093	2464.05
471.3	784.71
471.508	-1484.44
471.716	-478.88
471.923	205.14
472.131	268.63
472.338	-1320.6
472.546	-790.17
472.753	2904.36
472.961	-1355.41
473.168	-126.63
473.375	-460.45
473.583	1214.79
473.79	-163.5
473.998	237.91
474.205	332.11
474.412	2001.21
474.62	-872.09
474.827	-1339.03
475.035	1433.92
475.242	-771.74
475.449	-1486.48
475.657	3950.87
475.864	3141.93
476.071	121.17
476.278	-1085.08
476.486	-716.45
476.693	323.92
476.9	381.26
477.107	268.63
477.315	-984.73
477.522	225.62
477.729	1526.08
477.936	-655.01
478.143	-1418.9
478.351	1335.62
478.558	-1072.79
478.765	-548.51
478.972	-323.24
479.179	436.56
479.386	622.92
479.593	936.26
479.8	794.95
480.007	-1572.5
480.215	-102.06
480.422	1046.85
480.629	-2154.12
480.836	1089.86
481.043	2976.04
481.25	-763.55
481.457	-1472.15
481.664	-681.63
481.871	725.32
482.078	-1406.61
482.284	-1312.41
482.491	2044.21
482.698	1626.43
482.905	-1003.16
483.112	-2111.11
483.319	147.8
483.526	205.14
483.733	2179.38
483.94	-2539.14
484.146	-1613.46
484.353	182.61
484.56	-521.89
484.767	-2971.26
484.974	2048.31
485.18	1581.37
485.387	-568.99
485.594	-1136.28
485.801	1802.55
486.007	364.88
486.214	-849.57
486.421	-1832.59
486.627	-116.39
486.834	880.97
487.041	616.78
487.247	-1343.13
487.454	-1293.97
487.661	321.87
487.867	549.2
488.074	-1644.18
488.281	1206.59
488.487	-255.65
488.694	-882.33
488.9	-448.16
489.107	-1035.93
489.313	-751.26
489.52	-511.65
489.726	-1658.51
489.933	2844.97
490.139	2908.46
490.346	-405.16
490.552	313.68
490.759	-333.48
490.965	127.32
491.172	16146.53
491.378	-384.68
491.584	22.87
491.791	1751.35
491.997	-183.98
492.204	-476.84
492.41	3168.55
492.616	-1722
492.823	-1226.39
493.029	-1062.55
493.235	2287.92
493.442	-93.87
493.648	-761.5
493.854	-548.51
494.06	4534.54
494.267	760.14
494.473	-937.63
494.679	-1435.28
494.885	317.78
495.091	3131.69
495.298	868.68
495.504	-2354.82
495.71	-370.34
495.916	-1783.44
496.122	2591.02
496.328	672.08
496.535	645.45
496.741	-405.16
496.947	633.16
497.153	-263.85
497.359	463.18
497.565	483.66
497.771	1720.64
497.977	-138.92
498.183	-667.3
498.389	762.19
498.595	-1592.98
498.801	526.67
499.007	883.02
499.213	-308.9
499.419	-507.55
499.625	-20.14
499.831	3166.5
500.037	-468.64
500.243	-1400.47
500.448	-485.03
500.654	993.61
500.86	2074.93
501.066	-485.03
501.272	2236.72
501.478	-1861.26
501.684	-495.27
501.889	-1676.95
502.095	-1410.71
502.301	-347.81
502.507	524.62
502.712	-435.88
502.918	-1226.39
503.124	-1031.83
503.33	981.32
503.535	-810.65
503.741	41.3
503.947	-294.57
504.152	-249.51
504.358	-2193.03
504.564	-585.38
504.769	510.29
504.975	4337.94
505.181	-71.34
505.386	-1703.57
505.592	-677.54
505.797	653.64
506.003	-2569.86
506.208	1909.05
506.414	-515.75
506.619	117.08
506.825	602.44
507.03	-1834.64
507.236	-1019.55
507.441	368.98
507.647	-722.59
507.852	119.12
508.058	1104.2
508.263	1235.27
508.469	-575.14
508.674	-2109.07
508.879	-556.71
509.085	-42.67
509.29	-1664.66
509.495	-1226.39
509.701	-810.65
509.906	981.32
510.111	-464.55
510.317	917.83
510.522	440.65
510.727	2083.13
510.933	-632.48
511.138	237.91
511.343	-687.78
511.548	606.54
511.754	-1531.54
511.959	2230.58
512.164	-81.58
512.369	3449.12
512.574	3346.72
512.779	-1431.19
512.985	-394.92
513.19	977.22
513.395	149.84
513.6	-970.4
513.805	-143.02
514.01	2021.69
514.215	-247.46
514.42	2724.14
514.625	-499.36
514.83	2685.23
515.035	-9.9
515.24	117.08
515.445	3072.29
515.65	2011.45
515.855	242
516.06	-485.03
516.265	674.12
516.47	1245.51
516.675	270.67
516.88	-2061.96
517.085	188.75
517.29	-435.88
517.495	393.55
517.7	1640.76
517.904	-122.54
518.109	670.03
518.314	-263.85
518.519	510.29
518.724	696.65
518.928	698.7
519.133	-454.31
519.338	285.01
519.543	373.07
519.747	1030.47
519.952	2939.18
520.157	6127.86
520.362	1030.47
520.566	2879.79
520.771	-1820.3
520.976	1143.11
521.18	3758.36
521.385	-966.3
521.59	-790.17
521.794	602.44
521.999	2257.2
522.203	-855.71
522.408	-405.16
522.612	-863.9
522.817	835.91
523.022	2304.31
523.226	100.69
523.431	-677.54
523.635	219.47
523.84	2175.28
524.044	-630.43
524.249	1857.85
524.453	2967.85
524.657	166.23
524.862	6033.66
525.066	-853.66
525.271	-36.52
525.475	1388.86
525.679	-81.58
525.884	-1697.42
526.088	1491.26
526.292	2756.91
526.497	201.04
526.701	-767.65
526.905	-310.95
527.11	317.78
527.314	-192.17
527.518	3459.36
527.722	-638.62
527.927	1202.5
528.131	-1851.02
528.335	5581.06
528.539	1710.4
528.744	2617.65
528.948	-1623.7
529.152	-1072.79
529.356	2558.25
529.56	594.25
529.764	260.43
529.968	170.32
530.173	7747.81
530.377	6334.71
530.581	-1605.27
530.785	1698.11
530.989	-292.52
531.193	483.66
531.397	-1123.99
531.601	323.92
531.805	1788.22
532.009	1769.79
532.213	49.49
532.417	723.27
532.621	2068.79
532.825	3645.73
533.029	-1.71
533.233	840.01
533.436	864.58
533.64	305.49
533.844	1804.6
534.048	-419.49
534.252	1442.11
534.456	3569.95
534.66	2206
534.863	90.45
535.067	418.13
535.271	2427.18
535.475	-362.15
535.679	2240.82
535.882	3178.79
536.086	2079.03
536.29	2177.33
536.493	725.32
536.697	1616.19
536.901	1294.66
537.104	2191.67
537.308	1083.72
537.512	1503.55
537.715	3887.39
537.919	2132.28
538.123	1884.47
538.326	1603.9
538.53	2945.32
538.733	3733.79
538.937	2388.27
539.141	2060.6
539.344	3262.76
539.548	2298.16
539.751	5114.12
539.955	5761.28
540.158	7362.79
540.362	5132.55
540.565	3180.84
540.768	4481.3
540.972	11108.52
541.175	9046.22
541.379	6895.85
541.582	6494.45
541.785	8065.24
541.989	9863.36
542.192	5390.6
542.396	6514.93
542.599	8777.94
542.802	9097.42
543.005	7561.44
543.209	6602.99
543.412	8337.62
543.615	7960.8
543.819	8372.44
544.022	6715.63
544.225	8192.22
544.428	8057.05
544.631	10571.96
544.835	7438.56
545.038	6359.28
545.241	6732.01
545.444	9767.1
545.647	8202.46
545.85	7051.5
546.054	5802.24
546.257	3985.69
546.46	6854.89
546.663	5980.41
546.866	6770.93
547.069	7305.45
547.272	5482.75
547.475	6023.42
547.678	5398.79
547.881	4260.12
548.084	4655.37
548.287	4940.04
548.49	2560.3
548.693	4147.48
548.896	1935.67
549.099	4632.85
549.302	2570.54
549.505	2318.64
549.707	1978.68
549.91	3991.83
550.113	2105.65
550.316	1653.05
550.519	4256.02
550.722	4303.12
550.924	2066.74
551.127	3207.46
551.33	2337.07
551.533	1679.68
551.736	1298.75
551.938	1304.9
552.141	2924.84
552.344	784.71
552.546	2998.57
552.749	1767.74
552.952	1859.9
553.154	1769.79
553.357	1913.14
553.56	1542.46
553.762	7162.09
553.965	5613.82
554.168	1872.18
554.37	3842.33
554.573	2851.11
554.775	4098.33
554.978	3279.14
555.18	430.41
555.383	1222.98
555.585	5126.41
555.788	2611.5
555.99	1331.52
556.193	1960.25
556.395	3279.14
556.598	917.83
556.8	1603.9
557.003	2089.27
557.205	5779.71
557.407	1526.08
557.61	2054.45
557.812	2445.62
558.015	4313.36
558.217	1747.26
558.419	2332.98
558.622	3825.95
558.824	2339.12
559.026	936.26
559.228	1843.51
559.431	3442.98
559.633	3109.16
559.835	1743.16
560.037	3203.36
560.24	4966.67
560.442	4112.66
560.644	1511.74
560.846	3469.6
561.048	3707.16
561.25	4561.17
561.453	2971.94
561.655	2009.4
561.857	2689.32
562.059	2163
562.261	4630.8
562.463	2777.39
562.665	2740.52
562.867	3799.32
563.069	3668.25
563.271	4665.61
563.473	3643.68
563.675	3283.24
563.877	3473.7
564.079	2142.52
564.281	5349.64
564.483	3928.35
564.685	3068.2
564.887	2570.54
565.089	4399.38
565.291	4514.06
565.493	1863.99
565.694	5443.84
565.896	1923.38
566.098	4137.24
566.3	5118.22
566.502	2777.39
566.704	5896.44
566.905	805.19
567.107	1485.12
567.309	1286.47
567.511	4174.1
567.712	1415.49
567.914	2625.84
568.116	618.83
568.317	4866.32
568.519	3182.88
568.721	242
568.922	352.59
569.124	2785.58
569.326	5142.79
569.527	2613.55
569.729	2498.86
569.93	6732.01
570.132	2054.45
570.334	4065.56
570.535	1061.19
570.737	2036.02
570.938	6060.28
571.14	2173.24
571.341	3543.33
571.543	7022.83
571.744	2900.27
571.946	4329.75
572.147	1661.24
572.348	5509.38
572.55	4360.47
572.751	4923.66
572.953	2281.78
573.154	4323.6
573.355	6598.9
573.557	9285.83
573.758	3629.34
573.959	3473.7
574.161	5028.1
574.362	5501.19
574.563	7246.05
574.765	6035.71
574.966	6150.39
575.167	2482.48
575.368	5593.34
575.569	3860.76
575.771	6009.08
575.972	3070.25
576.173	4264.21
576.374	5519.62
576.575	4843.79
576.776	1464.64
576.978	2521.39
577.179	3500.32
577.38	4331.8
577.581	2621.74
577.782	3598.62
577.983	5179.65
578.184	5814.52
578.385	3459.36
578.586	4127
578.787	2699.56
578.988	4059.42
579.189	1935.67
579.39	2687.28
579.591	3723.55
579.792	2736.43
579.993	4747.53
580.194	4714.77
580.395	5976.31
580.596	3893.53
580.796	4964.62
580.997	2779.43
581.198	3846.43
581.399	5699.84
581.6	6246.65
581.801	2976.04
582.001	6848.75
582.202	2535.73
582.403	1546.56
582.604	7334.12
582.804	3778.84
583.005	4159.77
583.206	954.69
583.407	5329.16
583.607	3256.61
583.808	2851.11
584.009	4948.23
584.209	4536.59
584.41	1618.24
584.61	3385.63
584.811	3240.23
585.012	2572.59
585.212	1806.65
585.413	3318.05
585.613	3311.91
585.814	2007.35
586.014	5183.75
586.215	2588.97
586.415	3078.44
586.616	2064.69
586.816	2584.88
587.017	4751.63
587.217	1847.61
587.418	6004.99
587.618	2631.98
587.819	2730.28
588.019	1196.36
588.219	528.72
588.42	2976.04
