Data from TmLN Sample 3_USBC44471_15-11-32-368.txt Node
Date: Wed Jul 29 15:11:32 MDT 2020
User: Montana Instruments
Spectrometer: USBC4447
Scans to average: 1
Trigger mode: 4
Integration Time (sec): 1.000000E1
Electric dark correction enabled: true
Boxcar width: 0
XAxis mode: Wavelengths
Number of Pixels in Spectrum: 3648
>>>>>Begin Spectral Data<<<<<
344.991	-5311.41
345.205	-5311.41
345.419	-5311.41
345.633	-5321.65
345.847	-5405.61
346.061	-304.12
346.275	1090.54
346.489	-1350.64
346.703	-115.71
346.917	-1766.37
347.131	1131.5
347.345	-891.89
347.559	-771.06
347.773	1481.71
347.986	-187.39
348.2	2780.12
348.414	-1096.69
348.628	-816.12
348.842	-1031.15
349.056	-1135.6
349.269	189.44
349.483	1215.47
349.697	1491.95
349.911	1252.33
350.125	-1045.49
350.338	449.53
350.552	918.51
350.766	-752.63
350.979	-1418.22
351.193	-543.74
351.407	5110.71
351.621	-392.19
351.834	-1448.94
352.048	2391
352.262	-402.43
352.475	3263.44
352.689	973.81
352.902	1504.23
353.116	58.37
353.33	-1534.95
353.543	-1061.87
353.757	371.71
353.971	160.77
354.184	287.74
354.398	-476.15
354.611	771.06
354.825	2763.73
355.038	1213.42
355.252	-181.25
355.465	-480.25
355.679	-1864.68
355.892	660.47
356.106	1102.83
356.319	7437.2
356.533	-541.69
356.746	-312.32
356.96	-881.65
357.173	-1391.59
357.386	1360.88
357.6	-818.16
357.813	-1053.68
358.027	-1934.31
358.24	-803.83
358.453	2474.97
358.667	-1375.21
358.88	1125.36
359.094	-1137.65
359.307	205.82
359.52	-424.95
359.733	2196.45
359.947	-2255.84
360.16	1223.66
360.373	1598.44
360.587	-1385.45
360.8	-500.73
361.013	-500.73
361.226	-867.31
361.44	2528.22
361.653	1551.34
361.866	-867.31
362.079	-2077.66
362.292	216.06
362.506	3484.62
362.719	336.89
362.932	2761.69
363.145	25.6
363.358	-1033.2
363.571	-1428.46
363.785	-343.03
363.998	1188.85
364.211	1731.56
364.424	-1221.61
364.637	1008.62
364.85	-699.38
365.063	1965.03
365.276	27.65
365.489	-1477.61
365.702	-257.02
365.915	287.74
366.128	-361.47
366.341	1938.4
366.554	3263.44
366.767	-814.07
366.98	-46.08
367.193	840.69
367.406	-1516.52
367.619	3718.09
367.832	1778.66
368.045	146.43
368.258	416.76
368.471	850.93
368.684	-2139.1
368.896	-1899.49
369.109	-80.89
369.322	-1111.02
369.535	-293.88
369.748	-1485.8
369.961	-719.86
370.173	-2821.08
370.386	-2522.07
370.599	2667.48
370.812	-594.93
371.025	-918.51
371.237	224.25
371.45	146.43
371.663	672.76
371.876	-570.36
372.088	4699.06
372.301	-873.46
372.514	-1590.25
372.726	455.67
372.939	-320.51
373.152	-553.98
373.364	805.88
373.577	3345.36
373.79	-637.94
374.002	-1010.67
374.215	-2692.05
374.428	-1979.36
374.64	1412.07
374.853	-1225.71
375.065	-465.91
375.278	3533.77
375.491	-5.12
375.703	1426.41
375.916	-1938.4
376.128	-691.19
376.341	-1659.88
376.553	701.43
376.766	-1342.44
376.978	-1782.76
377.191	713.72
377.403	-1866.72
377.616	3036.11
377.828	4002.75
378.04	-1342.44
378.253	-644.09
378.465	461.82
378.678	1125.36
378.89	-1354.73
379.103	-863.22
379.315	216.06
379.527	-1737.7
379.74	-566.26
379.952	-263.16
380.164	-1526.76
380.377	2038.75
380.589	-183.29
380.801	-19.46
381.014	1610.73
381.226	1057.78
381.438	54.27
381.65	-1399.79
381.863	-72.7
382.075	-996.34
382.287	-2188.25
382.499	-1043.44
382.712	-199.68
382.924	-23.55
383.136	-926.71
383.348	-3077.07
383.56	19.46
383.772	-1051.63
383.985	207.87
384.197	1291.24
384.409	-592.89
384.621	474.1
384.833	70.65
385.045	-54.27
385.257	-1399.79
385.469	-644.09
385.681	119.81
385.893	-103.42
386.105	-1082.35
386.318	-2403.29
386.53	-539.64
386.742	-3040.21
386.954	-2456.54
387.166	2761.69
387.378	-93.18
387.589	60.42
387.801	-3021.78
388.013	-1364.97
388.225	-1299.44
388.437	-2122.72
388.649	-1764.33
388.861	2589.66
389.073	1131.5
389.285	-648.18
389.497	799.73
389.709	1301.48
389.92	-1391.59
390.132	-988.14
390.344	-777.2
390.556	-660.47
390.768	343.03
390.98	-912.37
391.191	1569.77
391.403	701.43
391.615	171.01
391.827	-1213.42
392.038	-1037.3
392.25	-275.45
392.462	-2130.91
392.674	-1917.92
392.885	-1457.13
393.097	-2374.62
393.309	-756.72
393.52	1143.79
393.732	-1760.23
393.944	637.94
394.155	406.52
394.367	-1577.96
394.579	330.75
394.79	-1158.13
395.002	-160.77
395.213	-2687.96
395.425	-302.08
395.637	-1242.09
395.848	-2264.03
396.06	238.59
396.271	150.53
396.483	-1121.26
396.694	-390.14
396.906	-564.22
397.117	1223.66
397.329	1360.88
397.54	-857.07
397.752	-1909.73
397.963	-1250.28
398.175	130.05
398.386	1055.73
398.598	-836.6
398.809	-2218.97
399.02	846.84
399.232	652.28
399.443	-15.36
399.655	-1129.45
399.866	-1248.24
400.077	-523.26
400.289	1418.22
400.5	-48.13
400.711	852.98
400.923	-1424.36
401.134	-965.62
401.345	-1956.83
401.556	3380.17
401.768	-846.84
401.979	-1025.01
402.19	951.28
402.401	-517.11
402.613	244.73
402.824	-828.4
403.035	-2587.61
403.246	-1801.19
403.457	279.55
403.669	203.77
403.88	-1219.57
404.091	-2145.25
404.302	-1459.18
404.513	-648.18
404.724	-1051.63
404.935	-826.36
405.146	857.07
405.358	-1762.28
405.569	-1567.72
405.78	-2008.03
405.991	-895.99
406.202	-115.71
406.413	-351.23
406.624	-1514.47
406.835	-283.64
407.046	2810.84
407.257	-103.42
407.468	1074.16
407.679	-398.33
407.89	1702.89
408.101	1919.97
408.312	-465.91
408.522	-1946.59
408.733	347.13
408.944	-11.26
409.155	-648.18
409.366	947.19
409.577	-1899.49
409.788	-392.19
409.999	154.62
410.209	-836.6
410.42	-214.01
410.631	-1928.16
410.842	-211.96
411.053	4965.3
411.264	1078.26
411.474	-1203.18
411.685	-144.38
411.896	-1489.9
412.107	-2194.4
412.317	-1025.01
412.528	1713.13
412.739	-2169.82
412.949	-1338.35
413.16	-17.41
413.371	2051.04
413.581	1076.21
413.792	-650.23
414.003	3406.8
414.213	1764.33
414.424	-2116.58
414.635	-599.03
414.845	-1147.89
415.056	1215.47
415.266	-1825.76
415.477	-2544.6
415.687	635.89
415.898	1059.82
416.109	-1788.9
416.319	279.55
416.53	-2716.63
416.74	87.04
416.951	-1387.5
417.161	-17.41
417.372	173.05
417.582	517.11
417.792	1598.44
418.003	2325.47
418.213	-1043.44
418.424	443.39
418.634	-1616.87
418.844	1065.97
419.055	1764.33
419.265	-1197.04
419.476	492.54
419.686	-1010.67
419.896	-29.7
420.107	-1106.93
420.317	-791.54
420.527	76.8
420.738	-510.97
420.948	1121.26
421.158	1297.39
421.368	-670.71
421.579	-431.1
421.789	-1229.81
421.999	-3515.34
422.209	-523.26
422.419	-545.78
422.63	-263.16
422.84	-599.03
423.05	-1301.48
423.26	-1244.14
423.47	-207.87
423.681	-1932.26
423.891	793.59
424.101	1588.2
424.311	-867.31
424.521	-236.54
424.731	-908.27
424.941	-685.05
425.151	252.92
425.361	-1661.93
425.571	-2501.59
425.781	3812.29
425.991	726
426.201	1551.34
426.411	449.53
426.621	-1442.79
426.831	-2046.94
427.041	105.47
427.251	-449.53
427.461	1266.67
427.671	1016.82
427.881	-791.54
428.091	-152.57
428.301	2565.08
428.511	-164.86
428.721	-3175.38
428.93	-705.53
429.14	-1211.37
429.35	146.43
429.56	-1147.89
429.77	-424.95
429.98	-1281
430.189	-1010.67
430.399	2622.42
430.609	1381.35
430.819	355.32
431.029	-1496.04
431.238	-879.6
431.448	-736.24
431.658	-2630.62
431.867	-852.98
432.077	209.92
432.287	-1238
432.497	-1145.84
432.706	-95.23
432.916	-351.23
433.125	-2941.91
433.335	-1215.47
433.545	1254.38
433.754	3695.56
433.964	-1330.16
434.174	-900.08
434.383	2139.1
434.593	-1238
434.802	871.41
435.012	-1416.17
435.221	146.43
435.431	-693.24
435.64	-1266.67
435.85	-1285.1
436.059	164.86
436.269	736.24
436.478	-1111.02
436.688	-2335.71
436.897	-1045.49
437.107	-2311.13
437.316	27568.73
437.525	-3.07
437.735	-66.56
437.944	-15.36
438.154	2388.96
438.363	146.43
438.572	2632.66
438.782	166.91
438.991	-930.8
439.2	-236.54
439.41	-928.75
439.619	-1285.1
439.828	148.48
440.038	82.94
440.247	2137.06
440.456	-1555.43
440.665	476.15
440.875	920.56
441.084	279.55
441.293	-1702.89
441.502	-1358.83
441.711	-1100.78
441.92	490.49
442.13	-435.19
442.339	-1209.33
442.548	-513.02
442.757	1772.52
442.966	-2991.06
443.175	-1080.3
443.384	1387.5
443.593	1426.41
443.803	-2010.08
444.012	-269.31
444.221	-556.02
444.43	4391.87
444.639	427
444.848	2094.05
445.057	-1256.43
445.266	-1426.41
445.475	-2391
445.684	-1336.3
445.893	2229.21
446.102	197.63
446.311	-3169.23
446.52	-7.17
446.728	2692.05
446.937	-2724.82
447.146	-3638.22
447.355	228.35
447.564	-451.58
447.773	1461.23
447.982	1270.76
448.191	619.51
448.399	-1330.16
448.608	-867.31
448.817	-619.51
449.026	904.18
449.235	-1616.87
449.443	1063.92
449.652	-644.09
449.861	-1076.21
450.07	41.98
450.278	1700.84
450.487	-3042.26
450.696	-37.89
450.904	-1285.1
451.113	-879.6
451.322	476.15
451.53	-685.05
451.739	2931.67
451.948	-1219.57
452.156	218.11
452.365	4178.88
452.574	734.2
452.782	140.29
452.991	-762.87
453.199	848.88
453.408	271.36
453.616	-1534.95
453.825	1061.87
454.033	1096.69
454.242	3290.06
454.45	3386.32
454.659	379.9
454.867	15164.18
455.076	-1227.76
455.284	-977.91
455.493	-1743.85
455.701	-1219.57
455.91	2997.2
456.118	-895.99
456.326	-2063.33
456.535	2403.29
456.743	1197.04
456.951	-2102.24
457.16	1233.9
457.368	875.51
457.576	-1690.6
457.785	2595.8
457.993	-265.21
458.201	-1391.59
458.41	691.19
458.618	-955.38
458.826	-297.98
459.034	-2835.41
459.243	-1407.98
459.451	-7.17
459.659	-62.46
459.867	-607.22
460.075	-824.31
460.284	-142.33
460.492	-2212.83
460.7	-375.8
460.908	-764.92
461.116	-2642.9
461.324	-1328.11
461.532	-2253.79
461.741	-1860.58
461.949	-965.62
462.157	1987.55
462.365	-107.52
462.573	-138.24
462.781	439.29
462.989	-926.71
463.197	-1625.06
463.405	-2288.61
463.613	-99.33
463.821	-2528.22
464.029	-152.57
464.237	-1248.24
464.445	-650.23
464.653	875.51
464.861	-437.24
465.069	1240.05
465.276	4508.6
465.484	-791.54
465.692	-717.81
465.9	-793.59
466.108	-699.38
466.316	738.29
466.524	-705.53
466.731	-472.06
466.939	1999.84
467.147	-171.01
467.355	-50.18
467.563	1311.72
467.77	736.24
467.978	-2620.38
468.186	261.12
468.393	1819.62
468.601	-429.05
468.809	-1967.07
469.017	-953.33
469.224	-1915.87
469.432	1065.97
469.64	-1231.85
469.847	-1969.12
470.055	502.78
470.263	-1188.85
470.47	-1149.93
470.678	1160.17
470.885	-148.48
471.093	2560.98
471.3	709.62
471.508	-1575.91
471.716	-588.79
471.923	271.36
472.131	150.53
472.338	-1469.42
472.546	-887.79
472.753	2720.73
472.961	-1455.08
473.168	-293.88
473.375	-439.29
473.583	1020.91
473.79	-287.74
473.998	222.2
474.205	324.6
474.412	1778.66
474.62	-787.44
474.827	-1436.65
475.035	1412.07
475.242	-787.44
475.449	-1385.45
475.657	3957.7
475.864	3005.39
476.071	-58.37
476.278	-889.84
476.486	-666.61
476.693	238.59
476.9	254.97
477.107	232.44
477.315	-1033.2
477.522	29.7
477.729	1442.79
477.936	-726
478.143	-1631.21
478.351	1358.83
478.558	-1186.8
478.765	-560.12
478.972	-494.58
479.179	592.89
479.386	809.97
479.593	912.37
479.8	994.29
480.007	-1827.81
480.215	-316.41
480.422	943.09
480.629	-2331.61
480.836	1053.68
481.043	2999.25
481.25	-705.53
481.457	-1491.95
481.664	-646.13
481.871	732.15
482.078	-1446.89
482.284	-1491.95
482.491	2114.53
482.698	1539.05
482.905	-1078.26
483.112	-2343.9
483.319	95.23
483.526	99.33
483.733	2298.84
483.94	-2548.7
484.146	-1563.62
484.353	41.98
484.56	-814.07
484.767	-3242.96
484.974	2126.82
485.18	1602.54
485.387	-537.59
485.594	-1283.05
485.801	1844.2
486.007	50.18
486.214	-857.07
486.421	-1782.76
486.627	-297.98
486.834	891.89
487.041	463.86
487.247	-1309.68
487.454	-1444.84
487.661	283.64
487.867	562.17
488.074	-1670.12
488.281	994.29
488.487	-283.64
488.694	-994.29
488.9	-406.52
489.107	-1092.59
489.313	-834.55
489.52	-545.78
489.726	-1608.68
489.933	2917.33
490.139	2819.03
490.346	-363.51
490.552	252.92
490.759	-402.43
490.965	84.99
491.172	16245.51
491.378	-457.72
491.584	72.7
491.791	1643.49
491.997	-230.4
492.204	-498.68
492.41	3023.83
492.616	-1729.51
492.823	-1547.24
493.029	-1170.41
493.235	2251.74
493.442	-33.79
493.648	-472.06
493.854	-549.88
494.06	4674.49
494.267	693.24
494.473	-928.75
494.679	-1420.27
494.885	396.28
495.091	3208.14
495.298	766.96
495.504	-2489.31
495.71	-328.7
495.916	-1819.62
496.122	2524.12
496.328	687.09
496.535	652.28
496.741	-564.22
496.947	623.61
497.153	-431.1
497.359	498.68
497.565	625.65
497.771	1543.14
497.977	-121.85
498.183	-756.72
498.389	844.79
498.595	-1625.06
498.801	494.58
499.007	799.73
499.213	-336.89
499.419	-705.53
499.625	-31.74
499.831	3142.61
500.037	-551.93
500.243	-1567.72
500.448	-691.19
500.654	1043.44
500.86	2038.75
501.066	-662.52
501.272	2575.32
501.478	-1948.64
501.684	-596.98
501.889	-1819.62
502.095	-1510.38
502.301	-361.47
502.507	713.72
502.712	-531.45
502.918	-1100.78
503.124	-1004.53
503.33	871.41
503.535	-850.93
503.741	222.2
503.947	-408.57
504.152	-240.64
504.358	-2292.7
504.564	-523.26
504.769	492.54
504.975	4500.41
505.181	-60.42
505.386	-1780.71
505.592	-781.3
505.797	908.27
506.003	-2692.05
506.208	2022.37
506.414	-472.06
506.619	-35.84
506.825	590.84
507.03	-2010.08
507.236	-1092.59
507.441	-60.42
507.647	-852.98
507.852	37.89
508.058	1233.9
508.263	932.85
508.469	-687.09
508.674	-2225.12
508.879	-465.91
509.085	-252.92
509.29	-1754.09
509.495	-1260.52
509.701	-969.71
509.906	844.79
510.111	-543.74
510.317	943.09
510.522	234.49
510.727	2061.28
510.933	-803.83
511.138	312.32
511.343	-816.12
511.548	689.14
511.754	-1395.69
511.959	2399.2
512.164	9.22
512.369	3462.09
512.574	3425.23
512.779	-1483.75
512.985	-568.31
513.19	986.1
513.395	1.02
513.6	-1039.34
513.805	-306.17
514.01	1924.07
514.215	-316.41
514.42	2747.35
514.625	-558.07
514.83	2446.3
515.035	-179.2
515.24	-54.27
515.445	2937.81
515.65	1958.88
515.855	330.75
516.06	-377.85
516.265	611.32
516.47	1295.34
516.675	226.3
516.88	-2298.84
517.085	125.95
517.29	-533.5
517.495	400.38
517.7	1790.95
517.904	-171.01
518.109	596.98
518.314	-549.88
518.519	596.98
518.724	685.05
518.928	601.08
519.133	-553.98
519.338	236.54
519.543	322.56
519.747	932.85
519.952	2972.63
520.157	6288.29
520.362	771.06
520.566	2765.78
520.771	-1821.67
520.976	1137.65
521.18	3828.68
521.385	-873.46
521.59	-961.52
521.794	396.28
521.999	2218.97
522.203	-951.28
522.408	-404.47
522.612	-912.37
522.817	691.19
523.022	2290.65
523.226	-136.19
523.431	-623.61
523.635	123.9
523.84	2206.69
524.044	-779.25
524.249	1821.67
524.453	2896.85
524.657	226.3
524.862	6587.29
525.066	-959.47
525.271	-257.02
525.475	1254.38
525.679	29.7
525.884	-1854.44
526.088	1295.34
526.292	2589.66
526.497	308.22
526.701	-906.23
526.905	-353.27
527.11	371.71
527.314	-244.73
527.518	3482.57
527.722	-797.68
527.927	1262.57
528.131	-1975.27
528.335	5405.61
528.539	1846.24
528.744	2712.53
528.948	-1645.54
529.152	-1106.93
529.356	2526.17
529.56	578.55
529.764	46.08
529.968	109.57
530.173	7768.97
530.377	6398.88
530.581	-1518.57
530.785	1741.8
530.989	-459.77
531.193	398.33
531.397	-1276.91
531.601	375.8
531.805	1805.28
532.009	1590.25
532.213	-11.26
532.417	627.7
532.621	2038.75
532.825	3341.26
533.029	119.81
533.233	590.84
533.436	711.67
533.64	281.6
533.844	1776.61
534.048	-580.6
534.252	818.16
534.456	3515.34
534.66	2452.44
534.863	44.03
535.067	246.78
535.271	2556.89
535.475	-336.89
535.679	2311.13
535.882	3038.16
536.086	2153.44
536.29	2300.89
536.493	695.29
536.697	1504.23
536.901	957.43
537.104	2280.41
537.308	1119.21
537.512	1383.4
537.715	3812.29
537.919	1846.24
538.123	2048.99
538.326	1432.55
538.53	2743.25
538.733	3718.09
538.937	2485.21
539.141	1950.69
539.344	3210.19
539.548	2264.03
539.751	4959.16
539.955	5557.16
540.158	7383.95
540.362	5032.88
540.565	3097.55
540.768	4465.6
540.972	10802.01
541.175	8942.46
541.379	6855.58
541.582	6347.68
541.785	7969.67
541.989	9675.63
542.192	5532.59
542.396	6480.8
542.599	8569.73
542.802	9145.2
543.005	7635.85
543.209	6476.7
543.412	7897.99
543.615	8098.69
543.819	8020.87
544.022	6597.53
544.225	7758.73
544.428	7564.17
544.631	10447.71
544.835	7400.34
545.038	6464.41
545.241	6646.68
545.444	9573.23
545.647	7943.05
545.85	7168.91
546.054	5655.47
546.257	3972.04
546.46	6738.84
546.663	6187.94
546.866	6675.35
547.069	6767.51
547.272	5305.26
547.475	6009.76
547.678	5182.38
547.881	4099.01
548.084	4656.06
548.287	5047.22
548.49	2522.07
548.693	4076.48
548.896	1696.74
549.099	4574.14
549.302	2573.27
549.505	2118.62
549.707	1864.68
549.91	4189.12
550.113	1956.83
550.316	1852.39
550.519	4271.04
550.722	4242.37
550.924	1819.62
551.127	2931.67
551.33	2116.58
551.533	1696.74
551.736	1283.05
551.938	1162.22
552.141	2683.86
552.344	787.44
552.546	2976.72
552.749	1661.93
552.952	1844.2
553.154	1799.14
553.357	1903.59
553.56	1491.95
553.762	7046.04
553.965	5737.38
554.168	1942.5
554.37	3900.36
554.573	2687.96
554.775	4260.8
554.978	3269.58
555.18	443.39
555.383	1092.59
555.585	5247.92
555.788	2685.91
555.99	1330.16
556.193	1870.82
556.395	3097.55
556.598	906.23
556.8	1502.19
557.003	2036.7
557.205	5749.67
557.407	1549.29
557.61	2079.71
557.812	2257.89
558.015	4371.39
558.217	1573.86
558.419	2216.93
558.622	3797.96
558.824	2409.44
559.026	885.75
559.228	1594.34
559.431	3175.38
559.633	3165.14
559.835	1649.64
560.037	3150.8
560.24	5041.08
560.442	3957.7
560.644	1420.27
560.846	3138.51
561.048	3699.66
561.25	4498.36
561.453	3091.41
561.655	2094.05
561.857	2538.46
562.059	2151.39
562.261	4735.93
562.463	2882.52
562.665	2610.14
562.867	3638.22
563.069	3611.59
563.271	4572.09
563.473	3464.14
563.675	3165.14
563.877	3363.79
564.079	2167.77
564.281	5231.54
564.483	3679.18
564.685	3038.16
564.887	2407.39
565.089	4254.66
565.291	4588.47
565.493	1688.55
565.694	5286.83
565.896	1893.35
566.098	4137.92
566.3	5075.89
566.502	2655.19
566.704	5649.32
566.905	613.37
567.107	1469.42
567.309	1225.71
567.511	4164.54
567.712	1424.36
567.914	2454.49
568.116	609.27
568.317	4631.48
568.519	3150.8
568.721	209.92
568.922	-1.02
569.124	2522.07
569.326	5016.5
569.527	2442.2
569.729	1813.48
569.93	6687.64
570.132	1799.14
570.334	4234.18
570.535	904.18
570.737	1829.86
570.938	6134.69
571.14	2085.86
571.341	3595.21
571.543	6994.84
571.744	2630.62
571.946	4361.15
572.147	1338.35
572.348	5585.83
572.55	4240.32
572.751	4910.01
572.953	2149.34
573.154	4379.58
573.355	6515.61
573.557	9079.67
573.758	3451.85
573.959	3376.08
574.161	4967.35
574.362	5278.64
574.563	7252.88
574.765	5780.39
574.966	6079.4
575.167	2405.34
575.368	5415.85
575.569	3728.33
575.771	6003.62
575.972	2980.82
576.173	4012.99
576.374	5366.7
576.575	4881.33
576.776	1375.21
576.978	2509.79
577.179	3206.1
577.38	4099.01
577.581	2491.35
577.782	3476.43
577.983	4928.44
578.184	5782.44
578.385	3326.93
578.586	4029.38
578.787	2479.07
578.988	4084.67
579.189	1696.74
579.39	2587.61
579.591	3550.15
579.792	2722.77
579.993	4715.45
580.194	4756.41
580.395	5856.17
580.596	3853.25
580.796	5008.31
580.997	2849.75
581.198	3507.15
581.399	5548.97
581.6	6194.08
581.801	2851.8
582.001	6759.32
582.202	2188.25
582.403	1434.6
582.604	7654.28
582.804	3517.39
583.005	4010.95
583.206	787.44
583.407	5442.48
583.607	3294.16
583.808	2894.8
584.009	4760.5
584.209	4533.18
584.41	1573.86
584.61	3376.08
584.811	3068.88
585.012	2528.22
585.212	1737.7
585.413	3515.34
585.613	3275.73
585.814	1973.22
586.014	4893.62
586.215	2642.9
586.415	3191.76
586.616	1940.45
586.816	2517.98
587.017	4815.8
587.217	1745.89
587.418	6013.86
587.618	2534.36
587.819	2565.08
588.019	1143.79
