Data from TmLN Sample 3_USBC44471_15-11-12-370.txt Node
Date: Wed Jul 29 15:11:12 MDT 2020
User: Montana Instruments
Spectrometer: USBC4447
Scans to average: 1
Trigger mode: 4
Integration Time (sec): 1.000000E1
Electric dark correction enabled: true
Boxcar width: 0
XAxis mode: Wavelengths
Number of Pixels in Spectrum: 3648
>>>>>Begin Spectral Data<<<<<
344.991	-5370.8
345.205	-5370.8
345.419	-5370.8
345.633	-5297.07
345.847	-5317.55
346.061	-363.51
346.275	1053.68
346.489	-1238
346.703	-48.13
346.917	-1723.37
347.131	1094.64
347.345	-746.48
347.559	-932.85
347.773	1426.41
347.986	-146.43
348.2	2806.74
348.414	-1182.7
348.628	-832.5
348.842	-1049.58
349.056	-1231.85
349.269	355.32
349.483	1356.78
349.697	1571.82
349.911	1412.07
350.125	-1076.21
350.338	349.18
350.552	812.02
350.766	-672.76
350.979	-1551.34
351.193	-82.94
351.407	5315.5
351.621	-134.14
351.834	-1504.23
352.048	2204.64
352.262	-455.67
352.475	3458
352.689	992.24
352.902	1649.64
353.116	-95.23
353.33	-1475.56
353.543	-1119.21
353.757	347.13
353.971	160.77
354.184	216.06
354.398	-396.28
354.611	697.33
354.825	2716.63
355.038	1194.99
355.252	-252.92
355.465	-322.56
355.679	-1848.29
355.892	676.85
356.106	1188.85
356.319	7533.45
356.533	-490.49
356.746	-334.84
356.96	-736.24
357.173	-1420.27
357.386	1324.01
357.6	-764.92
357.813	-1033.2
358.027	-1991.65
358.24	-822.26
358.453	2520.03
358.667	-1422.31
358.88	1070.06
359.094	-1090.54
359.307	330.75
359.52	-375.8
359.733	2173.92
359.947	-2321.37
360.16	1260.52
360.373	1854.44
360.587	-1217.52
360.8	-656.37
361.013	-443.39
361.226	-934.9
361.44	2556.89
361.653	1641.45
361.866	-1041.39
362.079	-2071.52
362.292	181.25
362.506	3343.31
362.719	648.18
362.932	2937.81
363.145	-44.03
363.358	-891.89
363.571	-1420.27
363.785	-257.02
363.998	1227.76
364.211	1858.53
364.424	-1317.87
364.637	1147.89
364.85	-736.24
365.063	1907.68
365.276	158.72
365.489	-1522.66
365.702	-390.14
365.915	306.17
366.128	-484.34
366.341	1866.72
366.554	3216.33
366.767	-844.79
366.98	-9.22
367.193	990.19
367.406	-1330.16
367.619	3640.26
367.832	1879.01
368.045	287.74
368.258	308.22
368.471	1029.1
368.684	-2239.45
368.896	-1768.42
369.109	31.74
369.322	-1104.88
369.535	-226.3
369.748	-1547.24
369.961	-844.79
370.173	-3623.88
370.386	-2673.62
370.599	2468.83
370.812	-543.74
371.025	-791.54
371.237	209.92
371.45	234.49
371.663	639.99
371.876	-726
372.088	4684.73
372.301	-869.36
372.514	-1604.58
372.726	558.07
372.939	-447.48
373.152	-486.39
373.364	961.52
373.577	3453.9
373.79	-633.85
374.002	-1061.87
374.215	-3152.85
374.428	-1995.75
374.64	1448.94
374.853	-943.09
375.065	-623.61
375.278	3378.12
375.491	-105.47
375.703	1340.4
375.916	-2075.62
376.128	-779.25
376.341	-1631.21
376.553	838.64
376.766	-1385.45
376.978	-1836
377.191	873.46
377.403	-1752.04
377.616	3142.61
377.828	3941.32
378.04	-1457.13
378.253	-590.84
378.465	562.17
378.678	1082.35
378.89	-1260.52
379.103	-801.78
379.315	179.2
379.527	-1762.28
379.74	-517.11
379.952	-87.04
380.164	-1491.95
380.377	1846.24
380.589	-66.56
380.801	128
381.014	1442.79
381.226	996.34
381.438	-132.09
381.65	-1422.31
381.863	-39.94
382.075	-1170.41
382.287	-2274.27
382.499	-1018.86
382.712	-58.37
382.924	52.22
383.136	-824.31
383.348	-3935.17
383.56	-179.2
383.772	-875.51
383.985	160.77
384.197	1450.99
384.409	-662.52
384.621	316.41
384.833	-132.09
385.045	-68.61
385.257	-1367.02
385.469	-553.98
385.681	-37.89
385.893	-46.08
386.105	-1184.75
386.318	-2800.6
386.53	-361.47
386.742	-3961.8
386.954	-2300.89
387.166	2780.12
387.378	44.03
387.589	173.05
387.801	-3840.97
388.013	-1403.88
388.225	-1342.44
388.437	-2198.49
388.649	-1954.79
388.861	2558.94
389.073	1020.91
389.285	-635.89
389.497	570.36
389.709	1219.57
389.92	-1240.05
390.132	-898.03
390.344	-844.79
390.556	-744.44
390.768	269.31
390.98	-1018.86
391.191	1768.42
391.403	533.5
391.615	203.77
391.827	-1145.84
392.038	-828.4
392.25	-224.25
392.462	-2192.35
392.674	-1919.97
392.885	-1489.9
393.097	-2720.73
393.309	-777.2
393.52	1020.91
393.732	-1717.22
393.944	539.64
394.155	191.49
394.367	-1504.23
394.579	461.82
394.79	-1131.5
395.002	-164.86
395.213	-2919.38
395.425	-455.67
395.637	-1106.93
395.848	-2268.13
396.06	353.27
396.271	320.51
396.483	-1061.87
396.694	-330.75
396.906	-547.83
397.117	1311.72
397.329	1332.2
397.54	-861.17
397.752	-1881.06
397.963	-1270.76
398.175	89.09
398.386	1078.26
398.598	-830.45
398.809	-2315.23
399.02	701.43
399.232	660.47
399.443	105.47
399.655	-1047.54
399.866	-1151.98
400.077	-672.76
400.289	1321.96
400.5	-33.79
400.711	957.43
400.923	-1594.34
401.134	-971.76
401.345	-1844.2
401.556	3351.5
401.768	-961.52
401.979	-1182.7
402.19	689.14
402.401	-685.05
402.613	62.46
402.824	-846.84
403.035	-2804.69
403.246	-1823.72
403.457	242.68
403.669	220.16
403.88	-1338.35
404.091	-2104.29
404.302	-1326.06
404.513	-703.48
404.724	-881.65
404.935	-871.41
405.146	1053.68
405.358	-1833.96
405.569	-1598.44
405.78	-2026.47
405.991	-945.14
406.202	9.22
406.413	-414.71
406.624	-1563.62
406.835	-422.91
407.046	2708.44
407.257	-175.1
407.468	1063.92
407.679	-437.24
407.89	1823.72
408.101	1833.96
408.312	-494.58
408.522	-1987.55
408.733	230.4
408.944	-33.79
409.155	-783.35
409.366	826.36
409.577	-1958.88
409.788	-443.39
409.999	58.37
410.209	-691.19
410.42	-76.8
410.631	-1903.59
410.842	-234.49
411.053	5008.31
411.264	1119.21
411.474	-1270.76
411.685	-17.41
411.896	-1379.31
412.107	-2081.76
412.317	-1129.45
412.528	1911.78
412.739	-2339.8
412.949	-1305.58
413.16	50.18
413.371	2085.86
413.581	975.86
413.792	-414.71
414.003	3681.22
414.213	1811.43
414.424	-2167.77
414.635	-500.73
414.845	-1194.99
415.056	973.81
415.266	-1686.5
415.477	-2507.74
415.687	799.73
415.898	982
416.109	-1793
416.319	390.14
416.53	-3163.09
416.74	183.29
416.951	-1428.46
417.161	-74.75
417.372	76.8
417.582	578.55
417.792	1547.24
418.003	2096.1
418.213	-836.6
418.424	484.34
418.634	-1555.43
418.844	1006.58
419.055	1973.22
419.265	-1334.25
419.476	498.68
419.686	-1027.06
419.896	-74.75
420.107	-1201.13
420.317	-719.86
420.527	91.13
420.738	-482.3
420.948	1035.25
421.158	1493.99
421.368	-545.78
421.579	-400.38
421.789	-1051.63
421.999	-4197.31
422.209	-488.44
422.419	-594.93
422.63	-160.77
422.84	-592.89
423.05	-1274.86
423.26	-1123.31
423.47	-363.51
423.681	-2010.08
423.891	752.63
424.101	1641.45
424.311	-877.55
424.521	-314.36
424.731	-740.34
424.941	-668.66
425.151	345.08
425.361	-1698.79
425.571	-2677.72
425.781	3933.12
425.991	773.11
426.201	1465.32
426.411	322.56
426.621	-1397.74
426.831	-2065.38
427.041	146.43
427.251	-349.18
427.461	1238
427.671	1219.57
427.881	-801.78
428.091	-93.18
428.301	2282.46
428.511	29.7
428.721	-3904.45
428.93	-543.74
429.14	-1121.26
429.35	179.2
429.56	-1221.61
429.77	-424.95
429.98	-1385.45
430.189	-1078.26
430.399	2612.18
430.609	1418.22
430.819	236.54
431.029	-1469.42
431.238	-893.94
431.448	-936.95
431.658	-3025.87
431.867	-703.48
432.077	250.88
432.287	-1076.21
432.497	-1080.3
432.706	-191.49
432.916	-445.43
433.125	-3351.5
433.335	-1348.59
433.545	1164.27
433.754	3814.34
433.964	-1379.31
434.174	-900.08
434.383	2298.84
434.593	-1270.76
434.802	938.99
435.012	-1291.24
435.221	308.22
435.431	-791.54
435.64	-1031.15
435.85	-1295.34
436.059	168.96
436.269	730.1
436.478	-1119.21
436.688	-2370.52
436.897	-912.37
437.107	-2218.97
437.316	27251.3
437.525	173.05
437.735	11.26
437.944	-80.89
438.154	2296.8
438.363	66.56
438.572	2939.86
438.782	240.64
438.991	-881.65
439.2	-441.34
439.41	-1041.39
439.619	-1084.4
439.828	224.25
440.038	78.85
440.247	2122.72
440.456	-1571.82
440.665	406.52
440.875	756.72
441.084	349.18
441.293	-1844.2
441.502	-1158.13
441.711	-1076.21
441.92	277.5
442.13	-476.15
442.339	-1260.52
442.548	-594.93
442.757	1768.42
442.966	-3126.22
443.175	-1127.41
443.384	1371.12
443.593	1594.34
443.803	-2120.67
444.012	-267.26
444.221	-578.55
444.43	4606.91
444.639	439.29
444.848	1999.84
445.057	-1184.75
445.266	-1479.66
445.475	-2249.69
445.684	-1231.85
445.893	2339.8
446.102	328.7
446.311	-3433.42
446.52	70.65
446.728	2954.19
446.937	-3730.38
447.146	-4357.05
447.355	293.88
447.564	-420.86
447.773	1442.79
447.982	1438.7
448.191	697.33
448.399	-1334.25
448.608	-984.05
448.817	-648.18
449.026	973.81
449.235	-1455.08
449.443	1082.35
449.652	-744.44
449.861	-1027.06
450.07	300.03
450.278	1817.57
450.487	-3306.45
450.696	54.27
450.904	-1297.39
451.113	-906.23
451.322	592.89
451.53	-801.78
451.739	2884.56
451.948	-1092.59
452.156	19.46
452.365	4230.08
452.574	736.24
452.782	244.73
452.991	-588.79
453.199	705.53
453.408	156.67
453.616	-1364.97
453.825	1172.46
454.033	1223.66
454.242	3242.96
454.45	3290.06
454.659	304.12
454.867	15112.99
455.076	-1113.07
455.284	-918.51
455.493	-1747.94
455.701	-1235.95
455.91	3222.48
456.118	-844.79
456.326	-2165.73
456.535	2620.38
456.743	1203.18
456.951	-2640.86
457.16	1135.6
457.368	709.62
457.576	-1528.81
457.785	2755.54
457.993	-142.33
458.201	-1311.72
458.41	504.82
458.618	-982
458.826	-181.25
459.034	-3077.07
459.243	-1547.24
459.451	226.3
459.659	134.14
459.867	-689.14
460.075	-855.03
460.284	-76.8
460.492	-2245.6
460.7	-363.51
460.908	-648.18
461.116	-3611.59
461.324	-1274.86
461.532	-2431.96
461.741	-2081.76
461.949	-904.18
462.157	2120.67
462.365	-84.99
462.573	-287.74
462.781	441.34
462.989	-769.01
463.197	-1559.53
463.405	-2337.76
463.613	-54.27
463.821	-2558.94
464.029	11.26
464.237	-1160.17
464.445	-805.88
464.653	938.99
464.861	-295.93
465.069	1178.61
465.276	4641.72
465.484	-809.97
465.692	-834.55
465.9	-916.47
466.108	-707.57
466.316	838.64
466.524	-816.12
466.731	-539.64
466.939	1737.7
467.147	-146.43
467.355	-113.66
467.563	1485.8
467.77	709.62
467.978	-2565.08
468.186	257.02
468.393	1891.3
468.601	-381.95
468.809	-1864.68
469.017	-801.78
469.224	-1815.52
469.432	1000.43
469.64	-1315.82
469.847	-1883.11
470.055	562.17
470.263	-1217.52
470.47	-1250.28
470.678	1387.5
470.885	-238.59
471.093	2397.15
471.3	875.51
471.508	-1496.04
471.716	-539.64
471.923	238.59
472.131	197.63
472.338	-1532.9
472.546	-844.79
472.753	2749.4
472.961	-1410.03
473.168	-312.32
473.375	-560.12
473.583	1117.17
473.79	-248.83
473.998	205.82
474.205	383.99
474.412	1872.87
474.62	-807.92
474.827	-1555.43
475.035	1303.53
475.242	-861.17
475.449	-1491.95
475.657	3924.93
475.864	3132.37
476.071	-87.04
476.278	-1014.77
476.486	-596.98
476.693	164.86
476.9	293.88
477.107	254.97
477.315	-1045.49
477.522	54.27
477.729	1567.72
477.936	-693.24
478.143	-1493.99
478.351	1283.05
478.558	-1340.4
478.765	-678.9
478.972	-314.36
479.179	568.31
479.386	715.77
479.593	861.17
479.8	1143.79
480.007	-1647.59
480.215	-214.01
480.422	941.04
480.629	-2354.14
480.836	1080.3
481.043	3165.14
481.25	-687.09
481.457	-1422.31
481.664	-578.55
481.871	637.94
482.078	-1418.22
482.284	-1348.59
482.491	1985.51
482.698	1594.34
482.905	-1051.63
483.112	-2235.36
483.319	150.53
483.526	60.42
483.733	2124.77
483.94	-2812.89
484.146	-1686.5
484.353	76.8
484.56	-699.38
484.767	-4207.55
484.974	2092
485.18	1608.68
485.387	-572.41
485.594	-1207.28
485.801	1799.14
486.007	248.83
486.214	-918.51
486.421	-1924.07
486.627	-285.69
486.834	824.31
487.041	580.6
487.247	-1227.76
487.454	-1430.51
487.661	396.28
487.867	482.3
488.074	-1797.09
488.281	1039.34
488.487	-259.07
488.694	-867.31
488.9	-490.49
489.107	-1053.68
489.313	-728.05
489.52	-580.6
489.726	-1774.56
489.933	2816.98
490.139	2708.44
490.346	-355.32
490.552	248.83
490.759	-406.52
490.965	269.31
491.172	16390.92
491.378	-508.92
491.584	41.98
491.791	1764.33
491.997	-240.64
492.204	-480.25
492.41	3130.32
492.616	-1840.1
492.823	-1653.73
493.029	-1145.84
493.235	2163.68
493.442	-287.74
493.648	-777.2
493.854	-672.76
494.06	4707.26
494.267	574.46
494.473	-848.88
494.679	-1348.59
494.885	340.99
495.091	3181.52
495.298	809.97
495.504	-2503.64
495.71	-244.73
495.916	-1917.92
496.122	2481.11
496.328	599.03
496.535	672.76
496.741	-388.09
496.947	713.72
497.153	-285.69
497.359	406.52
497.565	558.07
497.771	1623.02
497.977	-238.59
498.183	-850.93
498.389	746.48
498.595	-1688.55
498.801	439.29
499.007	865.27
499.213	-396.28
499.419	-789.49
499.625	54.27
499.831	3189.71
500.037	-672.76
500.243	-1455.08
500.448	-611.32
500.654	992.24
500.86	1868.77
501.066	-547.83
501.272	2540.51
501.478	-1838.05
501.684	-670.71
501.889	-1811.43
502.095	-1414.12
502.301	-304.12
502.507	617.46
502.712	-537.59
502.918	-1254.38
503.124	-1051.63
503.33	1043.44
503.535	-803.83
503.741	171.01
503.947	-340.99
504.152	-324.6
504.358	-2139.1
504.564	-564.22
504.769	508.92
504.975	4262.85
505.181	-56.32
505.386	-1823.72
505.592	-646.13
505.797	719.86
506.003	-2591.7
506.208	1930.21
506.414	-396.28
506.619	27.65
506.825	508.92
507.03	-2024.42
507.236	-988.14
507.441	74.75
507.647	-871.41
507.852	-48.13
508.058	1268.72
508.263	1295.34
508.469	-580.6
508.674	-2214.88
508.879	-486.39
509.085	-82.94
509.29	-1651.69
509.495	-1381.35
509.701	-1022.96
509.906	916.47
510.111	-543.74
510.317	1004.53
510.522	201.72
510.727	1965.03
510.933	-793.59
511.138	394.23
511.343	-871.41
511.548	564.22
511.754	-1645.54
511.959	2364.38
512.164	-68.61
512.369	3439.56
512.574	3353.55
512.779	-1571.82
512.985	-334.84
513.19	969.71
513.395	62.46
513.6	-1096.69
513.805	-189.44
514.01	1913.83
514.215	-306.17
514.42	2900.95
514.625	-537.59
514.83	2560.98
515.035	-316.41
515.24	-3.07
515.445	3032.02
515.65	1952.74
515.855	62.46
516.06	-560.12
516.265	502.78
516.47	1313.77
516.675	68.61
516.88	-2345.95
517.085	171.01
517.29	-457.72
517.495	431.1
517.7	1610.73
517.904	-277.5
518.109	607.22
518.314	-414.71
518.519	666.61
518.724	603.13
518.928	732.15
519.133	-451.58
519.338	357.37
519.543	541.69
519.747	930.8
519.952	3001.3
520.157	5991.33
520.362	889.84
520.566	2839.51
520.771	-1784.8
520.976	1059.82
521.18	3953.6
521.385	-906.23
521.59	-951.28
521.794	588.79
521.999	2128.86
522.203	-865.27
522.408	-437.24
522.612	-928.75
522.817	703.48
523.022	2206.69
523.226	-248.83
523.431	-1254.38
523.635	187.39
523.84	2010.08
524.044	-740.34
524.249	1715.17
524.453	2927.57
524.657	185.34
524.862	6808.47
525.066	-1004.53
525.271	-54.27
525.475	1127.41
525.679	-84.99
525.884	-1870.82
526.088	1313.77
526.292	2593.75
526.497	275.45
526.701	-746.48
526.905	-302.08
527.11	316.41
527.314	-234.49
527.518	3482.57
527.722	-746.48
527.927	1350.64
528.131	-2122.72
528.335	5467.05
528.539	1860.58
528.744	2845.65
528.948	-1657.83
529.152	-1010.67
529.356	2444.25
529.56	607.22
529.764	136.19
529.968	13.31
530.173	7701.39
530.377	6253.47
530.581	-1565.67
530.785	1854.44
530.989	-470.01
531.193	447.48
531.397	-1178.61
531.601	291.84
531.805	1829.86
532.009	1676.26
532.213	46.08
532.417	707.57
532.621	2089.95
532.825	3245.01
533.029	60.42
533.233	773.11
533.436	695.29
533.64	285.69
533.844	1788.9
534.048	-594.93
534.252	1393.64
534.456	3494.86
534.66	2294.75
534.863	193.53
535.067	312.32
535.271	2487.26
535.475	-439.29
535.679	2167.77
535.882	3154.9
536.086	2040.8
536.29	2425.82
536.493	766.96
536.697	1604.58
536.901	1174.51
537.104	2118.62
537.308	1074.16
537.512	1526.76
537.715	3912.64
537.919	2065.38
538.123	2008.03
538.326	1430.51
538.53	2888.66
538.733	3562.44
538.937	2274.27
539.141	1954.79
539.344	3195.86
539.548	2319.32
539.751	4854.71
539.955	5792.68
540.158	7449.49
540.362	5172.15
540.565	3269.58
540.768	4574.14
540.972	11017.05
541.175	9155.44
541.379	6712.22
541.582	6421.41
541.785	8070.02
541.989	9511.79
542.192	5411.76
542.396	6552.48
542.599	8659.84
542.802	9237.36
543.005	7715.72
543.209	6509.47
543.412	8180.61
543.615	8309.63
543.819	7965.57
544.022	6413.21
544.225	7922.57
544.428	7990.15
544.631	10486.62
544.835	7383.95
545.038	6452.13
545.241	6835.1
545.444	9661.29
545.647	8133.51
545.85	6951.83
546.054	5731.24
546.257	3924.93
546.46	6697.88
546.663	6081.44
546.866	6904.73
547.069	7125.91
547.272	5358.51
547.475	5872.55
547.678	5518.25
547.881	4215.74
548.084	4670.39
548.287	5012.4
548.49	2350.04
548.693	3994.56
548.896	1856.48
549.099	4424.64
549.302	2687.96
549.505	2022.37
549.707	1977.31
549.91	4142.02
550.113	1919.97
550.316	1661.93
550.519	4352.96
550.722	4117.44
550.924	1965.03
551.127	2796.5
551.33	2130.91
551.533	1639.4
551.736	1311.72
551.938	1246.19
552.141	2698.2
552.344	779.25
552.546	2816.98
552.749	1608.68
552.952	1784.8
553.154	1858.53
553.357	1766.37
553.56	1778.66
553.762	7058.32
553.965	5802.92
554.168	1901.54
554.37	3961.8
554.573	2595.8
554.775	4268.99
554.978	3222.48
555.18	427
555.383	1057.78
555.585	5141.43
555.788	2622.42
555.99	1274.86
556.193	1836
556.395	3302.35
556.598	934.9
556.8	1430.51
557.003	2028.51
557.205	5921.7
557.407	1369.07
557.61	1985.51
557.812	2259.93
558.015	4355.01
558.217	1532.9
558.419	2094.05
558.622	3703.75
558.824	2429.91
559.026	975.86
559.228	1743.85
559.431	3480.52
559.633	3435.47
559.835	1725.41
560.037	3318.73
560.24	4885.43
560.442	4017.09
560.644	1340.4
560.846	3369.93
561.048	3453.9
561.25	4486.08
561.453	2927.57
561.655	2010.08
561.857	2501.59
562.059	2206.69
562.261	4586.43
562.463	2890.71
562.665	2585.56
562.867	3879.88
563.069	3566.54
563.271	4764.6
563.473	3412.94
563.675	3208.14
563.877	3154.9
564.079	1926.11
564.281	5372.85
564.483	3668.94
564.685	2956.24
564.887	2499.55
565.089	4375.49
565.291	4467.64
565.493	1797.09
565.694	5319.6
565.896	1752.04
566.098	4092.87
566.3	5213.1
566.502	2634.71
566.704	5540.78
566.905	506.87
567.107	1221.61
567.309	1266.67
567.511	4293.57
567.712	1504.23
567.914	2546.65
568.116	472.06
568.317	4744.12
568.519	3171.28
568.721	345.08
568.922	39.94
569.124	2544.6
569.326	4973.49
569.527	2423.77
569.729	1786.85
569.93	6634.39
570.132	1874.92
570.334	4266.94
570.535	928.75
570.737	1934.31
570.938	6263.71
571.14	2264.03
571.341	3707.85
571.543	6937.49
571.744	2546.65
571.946	4297.66
572.147	1657.83
572.348	5309.36
572.55	4293.57
572.751	4950.96
572.953	1995.75
573.154	4420.54
573.355	6460.32
573.557	9034.61
573.758	3509.19
573.959	3335.12
574.161	4912.05
574.362	5422
574.563	7564.17
574.765	5901.22
574.966	6337.44
575.167	2235.36
575.368	5440.43
575.569	3861.45
575.771	5948.33
575.972	3001.3
576.173	3933.12
576.374	5397.42
576.575	4834.23
576.776	1379.31
576.978	2409.44
577.179	3437.52
577.38	4119.49
577.581	2597.85
577.782	3269.58
577.983	5114.8
578.184	5690.28
578.385	3453.9
578.586	4121.54
578.787	2579.42
578.988	3957.7
579.189	1623.02
579.39	2530.27
579.591	3851.21
579.792	2651.1
579.993	4699.06
580.194	4584.38
580.395	5940.13
580.596	3926.98
580.796	4981.68
580.997	2892.76
581.198	3810.25
581.399	5473.2
581.6	6185.89
581.801	2647
582.001	6744.99
582.202	2483.16
582.403	1383.4
582.604	7586.7
582.804	3638.22
583.005	3922.88
583.206	865.27
583.407	5231.54
583.607	3267.53
583.808	2751.45
584.009	4780.98
584.209	4598.71
584.41	1569.77
584.61	3371.98
584.811	3038.16
585.012	2436.06
585.212	1876.96
585.413	3386.32
585.613	3230.67
585.814	1985.51
586.014	5161.91
586.215	2388.96
586.415	2986.96
586.616	1913.83
586.816	2706.39
587.017	4645.82
587.217	1778.66
587.418	6165.41
587.618	2679.77
587.819	2419.68
588.019	1244.14
588.219	498.68
588.42	2710.49
